#Collected Data-3
#Intensity_unit=cps
43.0000	73.2396
43.0020	56.9019
43.0040	45.4512
43.0060	47.3562
43.0080	36.6509
43.0100	43.5876
43.0120	42.9457
43.0140	61.8716
43.0160	56.8606
43.0180	46.0518
43.0200	51.2076
43.0220	56.1567
43.0240	54.3344
43.0260	51.8082
43.0280	61.9130
43.0300	51.1249
43.0320	60.0080
43.0340	54.2724
43.0360	56.8606
43.0380	26.5666
43.0400	49.8411
43.0420	58.1237
43.0440	36.6509
43.0460	53.0506
43.0480	53.7131
43.0500	48.5780
43.0520	68.2286
43.0540	40.4195
43.0560	35.3670
43.0580	44.2088
43.0600	43.5669
43.0620	45.4719
43.0640	51.7874
43.0660	60.0080
43.0680	41.0407
43.0700	58.0823
43.0720	38.5765
43.0740	36.6094
43.0760	37.8933
43.0780	39.1564
43.0800	44.8300
43.0820	54.9349
43.0840	54.3344
43.0860	62.4929
43.0880	67.6072
43.0900	49.2612
43.0920	29.0515
43.0940	46.0931
43.0960	43.5463
43.0980	57.4818
43.1000	42.3451
43.1020	63.1347
43.1040	58.7242
43.1060	49.8824
43.1080	51.8082
43.1100	63.7766
43.1120	62.5135
43.1140	61.2711
43.1160	51.1868
43.1180	59.9667
43.1200	68.8498
43.1220	51.8082
43.1240	34.7251
43.1260	36.6509
43.1280	66.2615
43.1300	53.6717
43.1320	68.1871
43.1340	43.6496
43.1360	63.1347
43.1380	42.3245
43.1400	34.7251
43.1420	51.8287
43.1440	56.7779
43.1460	53.0919
43.1480	66.9447
43.1500	58.0823
43.1520	49.2612
43.1540	56.8606
43.1560	53.6512
43.1580	36.0295
43.1600	48.6193
43.1620	36.6094
43.1640	41.0820
43.1660	49.9237
43.1680	43.5463
43.1700	48.6400
43.1720	54.9349
43.1740	56.8399
43.1760	34.0832
43.1780	53.0298
43.1800	66.3028
43.1820	51.8495
43.1840	66.8827
43.1860	55.5768
43.1880	71.3553
43.1900	56.2393
43.1920	56.8192
43.1940	69.5123
43.1960	61.8716
43.1980	51.1662
43.2000	60.0080
43.2020	71.3760
43.2040	47.9981
43.2060	54.9349
43.2080	66.9447
43.2100	58.7449
43.2120	56.1567
43.2140	74.5441
43.2160	51.1662
43.2180	71.9972
43.2200	59.9873
43.2220	64.4392
43.2240	50.5243
43.2260	56.1980
43.2280	61.2504
43.2300	46.7557
43.2320	56.1980
43.2340	53.0919
43.2360	51.1042
43.2380	63.1967
43.2400	57.4405
43.2420	58.1237
43.2440	64.3772
43.2460	44.8713
43.2480	54.3344
43.2500	75.1240
43.2520	55.6181
43.2540	42.9044
43.2560	64.4185
43.2580	56.8399
43.2600	63.7766
43.2620	63.8386
43.2640	54.9143
43.2660	63.1761
43.2680	55.5355
43.2700	62.5135
43.2720	78.3540
43.2740	59.3868
43.2760	73.2396
43.2780	61.8923
43.2800	59.9873
43.2820	61.8716
43.2840	83.9450
43.2860	66.9860
43.2880	50.5450
43.2900	57.4611
43.2920	69.5123
43.2940	53.6304
43.2960	70.1335
43.2980	73.8609
43.3000	86.5539
43.3020	56.8399
43.3040	76.4490
43.3060	61.2091
43.3080	76.4284
43.3100	60.0080
43.3120	68.2079
43.3140	94.0706
43.3160	75.8278
43.3180	52.4086
43.3200	83.3444
43.3220	66.9447
43.3240	82.1020
43.3260	89.6600
43.3280	65.0604
43.3300	52.4499
43.3320	58.7449
43.3340	50.5036
43.3360	72.0179
43.3380	61.8923
43.3400	59.9873
43.3420	65.6816
43.3440	67.5453
43.3460	68.8704
43.3480	66.9240
43.3500	75.1859
43.3520	78.2507
43.3540	58.1856
43.3560	77.0083
43.3580	77.0289
43.3600	64.4598
43.3620	63.1141
43.3640	63.8179
43.3660	55.5561
43.3680	70.7341
43.3700	73.2396
43.3720	50.5450
43.3740	49.2612
43.3760	79.5965
43.3780	75.7865
43.3800	69.4297
43.3820	70.1129
43.3840	81.4808
43.3860	97.2593
43.3880	72.6184
43.3900	95.4163
43.3920	59.9667
43.3940	78.8719
43.3960	78.3334
43.3980	81.5014
43.4000	77.6708
43.4020	81.5014
43.4040	68.1665
43.4060	75.1446
43.4080	85.2908
43.4100	92.8488
43.4120	85.2081
43.4140	66.3441
43.4160	88.3969
43.4180	66.4062
43.4200	73.1777
43.4220	91.6270
43.4240	69.4710
43.4260	80.8182
43.4280	71.9972
43.4300	68.8498
43.4320	79.5345
43.4340	87.0925
43.4360	86.6159
43.4380	83.3444
43.4400	82.1641
43.4420	62.4722
43.4440	82.1228
43.4460	81.4601
43.4480	66.3441
43.4500	85.2081
43.4520	93.4700
43.4540	82.7440
43.4560	77.0496
43.4580	66.3441
43.4600	99.7648
43.4620	81.5014
43.4640	68.8085
43.4660	75.1653
43.4680	81.4601
43.4700	90.9438
43.4720	96.0375
43.4740	72.5978
43.4760	99.7648
43.4780	85.2495
43.4800	116.8066
43.4820	85.3322
43.4840	90.2606
43.4860	97.9013
43.4880	92.2276
43.4900	106.7017
43.4920	99.1436
43.4940	91.5857
43.4960	82.1433
43.4980	113.6177
43.5000	84.6696
43.5020	83.3238
43.5040	111.1535
43.5060	126.3521
43.5080	98.5225
43.5100	101.6699
43.5120	100.4481
43.5140	83.3859
43.5160	92.1449
43.5180	87.1545
43.5200	90.9645
43.5220	97.1973
43.5240	76.4904
43.5260	85.8914
43.5280	66.8827
43.5300	75.8691
43.5320	78.2507
43.5340	114.9429
43.5360	98.5845
43.5380	92.1449
43.5400	87.7757
43.5420	92.2689
43.5440	88.3969
43.5460	92.8488
43.5480	77.0909
43.5500	106.7017
43.5520	82.7027
43.5540	118.7115
43.5560	99.8476
43.5580	106.7017
43.5600	80.2177
43.5620	109.2279
43.5640	108.6686
43.5660	113.0173
43.5680	96.0170
43.5700	104.8793
43.5720	106.6397
43.5740	98.5225
43.5760	125.7309
43.5780	114.9221
43.5800	126.9320
43.5820	103.5749
43.5840	131.9845
43.5860	103.5336
43.5880	105.5212
43.5900	101.0694
43.5920	120.6372
43.5940	130.6800
43.5960	124.4471
43.5980	111.1535
43.6000	114.3217
43.6020	124.4058
43.6040	114.2183
43.6060	121.3410
43.6080	109.2898
43.6100	116.1852
43.6120	130.6593
43.6140	120.6578
43.6160	114.3422
43.6180	118.1110
43.6200	121.8383
43.6220	151.5730
43.6240	127.6360
43.6260	101.0074
43.6280	122.5215
43.6300	120.0160
43.6320	138.9006
43.6340	137.8027
43.6360	99.0610
43.6380	108.0267
43.6400	114.3422
43.6420	118.0283
43.6440	101.7319
43.6460	111.7954
43.6480	103.5336
43.6500	111.7954
43.6520	84.6490
43.6540	133.2063
43.6560	109.2072
43.6580	142.1927
43.6600	115.5641
43.6620	110.4703
43.6640	114.9842
43.6660	147.0384
43.6680	112.5406
43.6700	134.5107
43.6720	138.8799
43.6740	156.0248
43.6760	174.2676
43.6780	140.9090
43.6800	153.3540
43.6820	167.4548
43.6840	161.6158
43.6860	163.0030
43.6880	142.7105
43.6900	160.4561
43.6920	145.1954
43.6940	164.2454
43.6960	137.0163
43.6980	151.0138
43.7000	162.8790
43.7020	159.1309
43.7040	199.6331
43.7060	147.7424
43.7080	159.1517
43.7100	168.6353
43.7120	142.7933
43.7140	167.3102
43.7160	149.6474
43.7180	166.7510
43.7200	124.4885
43.7220	141.4061
43.7240	122.5835
43.7260	147.1005
43.7280	143.9736
43.7300	139.6044
43.7320	109.2279
43.7340	149.0881
43.7360	99.7856
43.7380	171.0582
43.7400	152.9187
43.7420	143.9944
43.7440	145.8994
43.7460	120.0160
43.7480	155.2384
43.7500	128.3192
43.7520	130.7421
43.7540	158.4477
43.7560	151.5110
43.7580	159.7523
43.7600	151.6969
43.7620	166.6890
43.7640	162.9823
43.7660	158.4477
43.7680	160.3940
43.7700	158.5510
43.7720	175.5928
43.7740	152.8774
43.7760	158.4892
43.7780	154.0992
43.7800	197.6661
43.7820	183.1300
43.7840	161.6986
43.7860	149.6887
43.7880	172.4246
43.7900	180.0239
43.7920	192.5724
43.7940	195.7818
43.7960	186.8987
43.7980	184.4551
43.8000	205.8867
43.8020	190.7086
43.8040	159.1724
43.8060	169.2565
43.8080	186.3394
43.8100	197.5628
43.8120	188.2652
43.8140	210.3385
43.8160	193.8355
43.8180	162.9617
43.8200	218.4764
43.8220	185.0557
43.8240	186.9813
43.8260	140.2876
43.8280	182.3642
43.8300	195.1193
43.8320	199.6537
43.8340	188.1411
43.8360	191.4126
43.8380	188.8450
43.8400	187.0021
43.8420	165.3433
43.8440	208.4749
43.8460	171.1821
43.8480	180.6038
43.8500	179.3821
43.8520	205.2448
43.8540	191.3300
43.8560	195.8438
43.8580	226.7383
43.8600	197.6041
43.8620	207.1911
43.8640	194.4567
43.8660	234.9589
43.8680	231.1901
43.8700	195.7405
43.8720	224.7713
43.8740	249.4535
43.8760	262.8091
43.8780	236.7604
43.8800	248.8736
43.8820	248.2111
43.8840	243.0554
43.8860	260.3449
43.8880	259.4964
43.8900	218.5590
43.8920	211.4983
43.8940	262.7678
43.8960	264.6728
43.8980	227.8774
43.9000	262.1259
43.9020	271.6303
43.9040	276.5794
43.9060	235.6007
43.9080	256.3077
43.9100	224.2327
43.9120	229.3678
43.9140	257.0322
43.9160	268.4829
43.9180	231.6874
43.9200	212.2229
43.9220	249.4122
43.9240	262.1259
43.9260	217.8758
43.9280	205.9693
43.9300	216.5507
43.9320	243.7386
43.9340	197.1482
43.9360	216.5301
43.9380	221.6859
43.9400	216.0122
43.9420	208.4336
43.9440	188.8450
43.9460	224.8333
43.9480	221.0232
43.9500	227.2975
43.9520	245.0223
43.9540	261.5460
43.9560	255.7691
43.9580	232.4119
43.9600	270.9058
43.9620	262.0846
43.9640	236.9052
43.9660	241.8129
43.9680	313.8100
43.9700	273.4526
43.9720	315.8804
43.9740	282.3357
43.9760	300.5372
43.9780	267.0958
43.9800	280.5134
43.9820	315.0939
43.9840	318.3240
43.9860	317.6614
43.9880	334.7237
43.9900	289.2105
43.9920	315.8184
43.9940	289.8110
43.9960	324.0803
43.9980	334.0198
44.0000	313.2922
44.0020	294.2835
44.0040	374.5220
44.0060	258.8959
44.0080	308.3431
44.0100	300.5785
44.0120	287.9680
44.0140	272.2102
44.0160	316.8956
44.0180	308.2605
44.0200	257.7361
44.0220	240.6531
44.0240	303.7672
44.0260	328.9467
44.0280	269.7253
44.0300	253.9055
44.0320	277.9251
44.0340	291.0948
44.0360	269.0628
44.0380	290.5149
44.0400	269.6840
44.0420	257.6121
44.0440	279.1677
44.0460	267.1165
44.0480	296.2713
44.0500	255.1479
44.0520	231.7287
44.0540	317.0195
44.0560	298.1349
44.0580	320.0637
44.0600	295.0288
44.0620	330.3132
44.0640	322.0306
44.0660	341.6812
44.0680	405.4578
44.0700	368.1651
44.0720	396.0569
44.0740	366.1981
44.0760	358.8261
44.0780	370.6913
44.0800	363.7545
44.0820	435.7517
44.0840	431.3824
44.0860	364.3758
44.0880	409.8683
44.0900	421.8989
44.0920	435.7517
44.0940	436.4556
44.0960	364.3964
44.0980	418.6274
44.1000	424.4870
44.1020	399.7221
44.1040	457.9284
44.1060	390.3212
44.1080	400.3433
44.1100	420.6358
44.1120	402.3517
44.1140	397.8584
44.1160	368.1651
44.1180	395.3529
44.1200	396.6986
44.1220	382.0799
44.1240	346.1124
44.1260	357.3357
44.1280	403.0349
44.1300	368.8483
44.1320	351.1648
44.1340	363.0507
44.1360	356.3205
44.1380	339.6315
44.1400	340.5007
44.1420	334.6204
44.1440	358.1636
44.1460	353.1525
44.1480	380.0510
44.1500	348.7005
44.1520	387.7329
44.1540	360.0479
44.1560	348.4940
44.1580	370.0907
44.1600	431.4031
44.1620	438.1540
44.1640	432.6042
44.1660	437.1181
44.1680	467.3501
44.1700	455.3196
44.1720	465.4245
44.1740	491.9497
44.1760	499.0104
44.1780	457.1213
44.1800	514.1677
44.1820	487.5805
44.1840	491.4112
44.1860	525.9709
44.1880	505.2847
44.1900	565.1893
44.1920	538.7467
44.1940	544.3171
44.1960	608.8595
44.1980	555.8090
44.2000	548.8515
44.2020	533.5909
44.2040	539.4712
44.2060	534.1089
44.2080	556.4302
44.2100	565.8932
44.2120	570.2625
44.2140	560.2609
44.2160	541.1695
44.2180	558.4385
44.2200	503.3383
44.2220	470.4769
44.2240	507.7489
44.2260	514.0851
44.2280	505.2433
44.2300	476.8543
44.2320	502.7378
44.2340	478.7594
44.2360	449.6873
44.2380	449.6666
44.2400	440.7628
44.2420	431.4445
44.2440	460.3926
44.2460	471.6986
44.2480	452.1721
44.2500	423.7832
44.2520	484.2884
44.2540	451.7782
44.2560	509.5092
44.2580	465.4451
44.2600	520.3180
44.2620	571.6702
44.2640	545.0416
44.2660	529.2217
44.2680	534.2741
44.2700	605.5881
44.2720	619.6270
44.2740	616.1696
44.2760	627.3503
44.2780	611.3237
44.2800	645.8836
44.2820	693.6737
44.2840	717.9841
44.2860	702.8474
44.2880	690.2163
44.2900	761.7990
44.2920	718.0254
44.2940	701.6876
44.2960	726.1427
44.2980	757.2025
44.3000	761.0952
44.3020	743.1430
44.3040	737.2821
44.3060	670.0893
44.3080	731.1951
44.3100	738.4831
44.3120	691.5827
44.3140	693.3845
44.3160	677.6267
44.3180	677.1087
44.3200	689.6364
44.3220	625.3006
44.3240	649.1550
44.3260	670.7518
44.3280	647.3947
44.3300	632.8380
44.3320	640.2926
44.3340	594.9653
44.3360	569.6205
44.3380	591.1554
44.3400	541.8528
44.3420	567.2596
44.3440	583.5354
44.3460	552.4756
44.3480	629.0900
44.3500	593.5989
44.3520	706.1395
44.3540	606.9132
44.3560	600.5976
44.3580	639.2361
44.3600	657.2309
44.3620	672.6568
44.3640	724.2997
44.3660	684.7080
44.3680	722.9952
44.3700	769.9369
44.3720	772.2978
44.3740	779.3792
44.3760	749.1471
44.3780	800.7899
44.3800	800.7280
44.3820	864.4427
44.3840	932.8364
44.3860	901.8801
44.3880	927.1008
44.3900	875.3754
44.3920	961.8053
44.3940	991.9753
44.3960	1022.0200
44.3980	1023.1797
44.4000	979.5096
44.4020	1010.4659
44.4040	927.1628
44.4060	1001.7482
44.4080	1027.4249
44.4100	931.0141
44.4120	968.0382
44.4140	964.4969
44.4160	863.1590
44.4180	881.9802
44.4200	862.6203
44.4220	832.9890
44.4240	885.4182
44.4260	863.3036
44.4280	797.7046
44.4300	834.8733
44.4320	828.5991
44.4340	807.0849
44.4360	732.6236
44.4380	764.4077
44.4400	668.7435
44.4420	730.0353
44.4440	707.2993
44.4460	698.7055
44.4480	767.7427
44.4500	746.7655
44.4520	703.9453
44.4540	832.2230
44.4560	838.7039
44.4580	814.2903
44.4600	838.6213
44.4620	861.1919
44.4640	836.4462
44.4660	901.3002
44.4680	923.7261
44.4700	940.3945
44.4720	978.9916
44.4740	1027.9842
44.4760	1062.3361
44.4780	1071.0332
44.4800	1127.9350
44.4820	1169.0792
44.4840	1222.6475
44.4860	1129.8401
44.4880	1218.1750
44.4900	1302.8033
44.4920	1265.8617
44.4940	1274.8703
44.4960	1267.6222
44.4980	1279.5907
44.5000	1243.2926
44.5020	1301.7881
44.5040	1266.2145
44.5060	1233.4150
44.5080	1289.6956
44.5100	1288.3292
44.5120	1314.9164
44.5140	1269.9830
44.5160	1258.8424
44.5180	1175.3740
44.5200	1258.6358
44.5220	1091.4082
44.5240	1136.3002
44.5260	1163.8406
44.5280	1099.6082
44.5300	1053.3704
44.5320	1029.4333
44.5340	1019.2458
44.5360	970.1911
44.5380	987.7920
44.5400	918.9630
44.5420	978.8882
44.5440	956.1937
44.5460	1000.9204
44.5480	986.4463
44.5500	975.8649
44.5520	923.4148
44.5540	985.1625
44.5560	1008.9964
44.5580	1089.5652
44.5600	1038.2543
44.5620	1007.2359
44.5640	1143.7137
44.5660	1147.0470
44.5680	1168.2513
44.5700	1246.3147
44.5720	1306.4480
44.5740	1279.8814
44.5760	1444.5813
44.5780	1355.3152
44.5800	1440.8760
44.5820	1458.8075
44.5840	1536.6229
44.5860	1567.7447
44.5880	1577.6016
44.5900	1692.0059
44.5920	1771.8104
44.5940	1654.6306
44.5960	1771.3958
44.5980	1765.8874
44.6000	1727.3730
44.6020	1698.8187
44.6040	1747.4381
44.6060	1775.2264
44.6080	1835.5443
44.6100	1816.4324
44.6120	1740.4806
44.6140	1741.2258
44.6160	1755.0787
44.6180	1699.5433
44.6200	1586.7740
44.6220	1627.7334
44.6240	1609.9659
44.6260	1647.9624
44.6280	1488.9568
44.6300	1505.0039
44.6320	1412.1345
44.6340	1396.5625
44.6360	1361.6721
44.6380	1251.9263
44.6400	1300.2151
44.6420	1290.9794
44.6440	1271.8468
44.6460	1175.4978
44.6480	1275.6774
44.6500	1206.1652
44.6520	1253.0242
44.6540	1302.8033
44.6560	1297.9368
44.6580	1359.7258
44.6600	1391.3035
44.6620	1276.7546
44.6640	1368.6502
44.6660	1398.3642
44.6680	1549.7719
44.6700	1656.5149
44.6720	1616.5101
44.6740	1734.4544
44.6760	1759.3859
44.6780	1789.1000
44.6800	1874.4941
44.6820	1860.6206
44.6840	1993.6409
44.6860	1960.9654
44.6880	2100.4045
44.6900	2146.6836
44.6920	2258.1691
44.6940	2310.3491
44.6960	2201.5978
44.6980	2343.0040
44.7000	2302.5225
44.7020	2439.3514
44.7040	2307.5750
44.7060	2368.8047
44.7080	2386.2183
44.7100	2319.6881
44.7120	2229.2209
44.7140	2359.5897
44.7160	2317.1206
44.7180	2258.6030
44.7200	2257.9818
44.7220	2122.5399
44.7240	2094.8962
44.7260	2077.3160
44.7280	2058.2247
44.7300	1952.6622
44.7320	1993.4535
44.7340	1917.3365
44.7360	1827.1172
44.7380	1880.6650
44.7400	1746.9408
44.7420	1749.0731
44.7440	1722.0313
44.7460	1672.4794
44.7480	1762.5540
44.7500	1678.8363
44.7520	1684.9659
44.7540	1704.9483
44.7560	1723.6869
44.7580	1632.1219
44.7600	1657.5094
44.7620	1710.7666
44.7640	1811.9392
44.7660	1798.8729
44.7680	1918.9935
44.7700	2014.6165
44.7720	2046.8774
44.7740	2168.7157
44.7760	2120.1170
44.7780	2380.1727
44.7800	2267.2588
44.7820	2476.2929
44.7840	2561.3977
44.7860	2612.7498
44.7880	2798.5522
44.7900	2784.2833
44.7920	3033.1582
44.7940	3000.5034
44.7960	3060.2636
44.7980	3153.2981
44.8000	3188.7065
44.8020	3222.9964
44.8040	3281.5761
44.8060	3244.3453
44.8080	3210.9660
44.8100	3197.8804
44.8120	3202.0623
44.8140	3208.3572
44.8160	3088.2586
44.8180	3163.2584
44.8200	3132.2385
44.8220	3045.2509
44.8240	3007.4196
44.8260	2966.5027
44.8280	2786.4790
44.8300	2778.2996
44.8320	2816.4836
44.8340	2652.3400
44.8360	2579.8678
44.8380	2519.3832
44.8400	2399.9678
44.8420	2483.1883
44.8440	2362.5718
44.8460	2239.6564
44.8480	2228.9096
44.8500	2147.9880
44.8520	2138.3184
44.8540	2182.7132
44.8560	2207.2921
44.8580	2242.1619
44.8600	2118.0054
44.8620	2257.0093
44.8640	2252.8673
44.8660	2358.9271
44.8680	2407.1332
44.8700	2645.1555
44.8720	2603.1423
44.8740	2810.0441
44.8760	2905.8735
44.8780	2979.3213
44.8800	3076.8286
44.8820	3260.7037
44.8840	3388.7130
44.8860	3535.1701
44.8880	3612.0146
44.8900	3819.4950
44.8920	3915.0351
44.8940	3990.1179
44.8960	4152.8523
44.8980	4119.2235
44.9000	4179.9366
44.9020	4361.8643
44.9040	4483.5594
44.9060	4483.7438
44.9080	4392.0756
44.9100	4408.1253
44.9120	4532.7364
44.9140	4585.8283
44.9160	4578.2290
44.9180	4631.5497
44.9200	4398.5978
44.9220	4506.2731
44.9240	4213.6468
44.9260	4122.3915
44.9280	4215.5932
44.9300	4188.3639
44.9320	4007.8014
44.9340	3953.0937
44.9360	3937.9570
44.9380	3715.4023
44.9400	3576.9988
44.9420	3494.0469
44.9440	3377.9649
44.9460	3341.6888
44.9480	3245.9803
44.9500	3205.6243
44.9520	3190.7356
44.9540	3088.4652
44.9560	3008.3521
44.9580	3028.7463
44.9600	2967.3529
44.9620	3029.1817
44.9640	3091.5727
44.9660	3262.7741
44.9680	3410.9726
44.9700	3424.1421
44.9720	3564.6157
44.9740	3624.8730
44.9760	3773.6083
44.9780	3837.1991
44.9800	4240.5042
44.9820	4226.5893
44.9840	4652.6904
44.9860	4927.2203
44.9880	4835.1167
44.9900	5062.9530
44.9920	5214.4843
44.9940	5471.3721
44.9960	5640.5860
44.9980	6002.4561
45.0000	6129.3892
45.0020	6372.6517
45.0040	6465.4988
45.0060	6308.2332
45.0080	6238.4094
45.0100	6763.5510
45.0120	6667.6788
45.0140	6709.8190
45.0160	6589.4912
45.0180	6731.8703
45.0200	6659.2533
45.0220	6522.8980
45.0240	6357.9267
45.0260	6511.1995
45.0280	6305.4158
45.0300	6217.5373
45.0320	6224.1624
45.0340	5965.8882
45.0360	5888.7350
45.0380	5545.5624
45.0400	5337.0681
45.0420	5353.7568
45.0440	5095.1298
45.0460	5028.6822
45.0480	5041.9359
45.0500	5006.5880
45.0520	4699.6113
45.0540	4491.5719
45.0560	4241.5178
45.0580	4292.7461
45.0600	4521.7006
45.0620	4715.3280
45.0640	4836.9802
45.0660	4809.1918
45.0680	4842.9020
45.0700	4836.8769
45.0720	4760.9859
45.0740	5041.3558
45.0760	5429.1110
45.0780	5779.4243
45.0800	6281.9774
45.0820	6698.9672
45.0840	6810.2034
45.0860	6856.0071
45.0880	6814.0766
45.0900	7189.4264
45.0920	7641.8067
45.0940	8472.1456
45.0960	8932.4943
45.0980	9084.3177
45.1000	9196.3803
45.1020	8949.0812
45.1040	9125.8954
45.1060	9274.0732
45.1080	9825.0376
45.1100	10329.2645
45.1120	10691.1981
45.1140	10858.5069
45.1160	10555.7754
45.1180	10469.2821
45.1200	10320.1144
45.1220	10273.6051
45.1240	10507.5503
45.1260	10744.5583
45.1280	10979.0215
45.1300	10840.5126
45.1320	10427.3947
45.1340	9967.4759
45.1360	9534.1273
45.1380	9367.6659
45.1400	9343.2746
45.1420	9635.5300
45.1440	9845.0179
45.1460	9696.1790
45.1480	9030.4987
45.1500	8514.1353
45.1520	7991.3959
45.1540	7768.1163
45.1560	7920.7266
45.1580	8328.2326
45.1600	8798.0880
45.1620	8822.5428
45.1640	8693.1248
45.1660	8045.6874
45.1680	7495.9886
45.1700	7508.1238
45.1720	8396.8149
45.1740	9313.9764
45.1760	10465.6815
45.1780	10783.0522
45.1800	10914.3328
45.1820	10309.4680
45.1840	9957.9107
45.1860	10368.3185
45.1880	11529.3248
45.1900	13073.9607
45.1920	14801.1059
45.1940	15677.1628
45.1960	15738.9688
45.1980	15056.7484
45.2000	14590.0607
45.2020	15013.2242
45.2040	16241.8364
45.2060	18720.9665
45.2080	20147.7621
45.2100	20566.0113
45.2120	20298.8540
45.2140	19323.4655
45.2160	18276.3881
45.2180	18601.2611
45.2200	20023.1313
45.2220	22214.7205
45.2240	23253.4322
45.2260	23558.6060
45.2280	21959.2543
45.2300	20320.5563
45.2320	19400.9283
45.2340	19535.7108
45.2360	20745.5651
45.2380	23099.0665
45.2400	24357.5122
45.2420	23910.7789
45.2440	22004.9581
45.2460	19538.4813
45.2480	17728.2842
45.2500	17869.5464
45.2520	19762.8668
45.2540	22400.0717
45.2560	24568.9694
45.2580	23994.2107
45.2600	22071.3848
45.2620	19374.8335
45.2640	17268.0354
45.2660	17962.4798
45.2680	20789.7344
45.2700	25193.5740
45.2720	28387.1608
45.2740	29205.8598
45.2760	27159.3085
45.2780	23779.2948
45.2800	22339.4968
45.2820	24137.2404
45.2840	29449.7334
45.2860	36906.4466
45.2880	41855.9761
45.2900	42872.1517
45.2920	39485.3191
45.2940	35719.2259
45.2960	34825.9296
45.2980	38794.8750
45.3000	48201.9952
45.3020	58712.5417
45.3040	65334.3476
45.3060	65730.9340
45.3080	59399.6430
45.3100	53404.7532
45.3120	52291.0518
45.3140	60610.3965
45.3160	75174.2132
45.3180	89505.0604
45.3200	95815.1746
45.3220	93115.9911
45.3240	82442.2471
45.3260	73031.8581
45.3280	74647.6894
45.3300	87647.8668
45.3320	107274.5671
45.3340	123724.1552
45.3360	128633.9757
45.3380	118370.1844
45.3400	103145.5350
45.3420	94950.8730
45.3440	103272.9807
45.3460	130682.1750
45.3480	164326.2003
45.3500	186924.0669
45.3520	190034.1159
45.3540	172404.2813
45.3560	150937.8933
45.3580	146823.5844
45.3600	172866.5395
45.3620	191965.5072
45.3640	236466.6098
45.3660	286363.4743
45.3680	298419.4881
45.3700	282052.1895
45.3720	250054.4779
45.3740	258688.3563
45.3760	335014.4601
45.3780	486598.8281
45.3800	643770.2794
45.3820	782439.0884
45.3840	831791.9677
45.3860	821285.0379
45.3880	868533.7366
45.3900	1131056.5147
45.3920	1869880.1566
45.3940	3288192.7685
45.3960	5304899.0061
45.3980	7664209.8007
45.4000	9691537.2005
45.4020	11472478.2680
45.4040	12638840.0816
45.4060	13291778.6724
45.4080	12616880.9432
45.4100	11273268.4003
45.4120	9728428.1741
45.4140	7489390.5550
45.4160	5363836.2725
45.4180	3536550.8130
45.4200	2292137.4303
45.4220	1467247.6392
45.4240	1035919.1161
45.4260	848306.0039
45.4280	774780.7047
45.4300	667222.4513
45.4320	541452.7020
45.4340	413894.7466
45.4360	319164.3057
45.4380	254129.9167
45.4400	233388.1582
45.4420	233404.5194
45.4440	239253.8557
45.4460	219819.4932
45.4480	185882.4959
45.4500	149512.3276
45.4520	123731.4872
45.4540	124352.4924
45.4560	127809.3930
45.4580	135407.5225
45.4600	136956.4880
45.4620	128923.5137
45.4640	110010.8347
45.4660	89219.7657
45.4680	76799.7941
45.4700	75112.1876
45.4720	80280.5950
45.4740	85592.9869
45.4760	84957.9789
45.4780	75013.0386
45.4800	61472.1669
45.4820	50008.5559
45.4840	46080.0719
45.4860	47368.0180
45.4880	50548.8801
45.4900	50841.4673
45.4920	45142.1103
45.4940	37174.2601
45.4960	30842.0538
45.4980	28549.1471
45.5000	30020.6510
45.5020	31545.8445
45.5040	31036.0569
45.5060	27830.1004
45.5080	23519.9431
45.5100	20752.8650
45.5120	20786.9788
45.5140	22412.3895
45.5160	23703.4490
45.5180	22362.6669
45.5200	20300.5896
45.5220	18539.5094
45.5240	18909.4805
45.5260	20779.5654
45.5280	22867.3774
45.5300	23451.6341
45.5320	21888.8558
45.5340	19508.8279
45.5360	19322.1234
45.5380	21298.7227
45.5400	24525.0985
45.5420	26658.0050
45.5440	25541.3926
45.5460	23607.4898
45.5480	21259.5392
45.5500	20902.6839
45.5520	23005.6606
45.5540	26125.3310
45.5560	27001.5458
45.5580	25150.3890
45.5600	22041.7091
45.5620	19335.6809
45.5640	19016.2230
45.5660	21286.5480
45.5680	23142.7350
45.5700	22658.7104
45.5720	20504.1572
45.5740	17413.9306
45.5760	15501.6093
45.5780	15504.9052
45.5800	17152.0194
45.5820	17982.4811
45.5840	17509.9935
45.5860	16338.5098
45.5880	15439.9464
45.5900	15828.7173
45.5920	17871.3288
45.5940	20169.7135
45.5960	21689.2476
45.5980	22579.9685
45.6000	24705.1433
45.6020	28377.5370
45.6040	34055.1720
45.6060	40108.7321
45.6080	44952.4171
45.6100	47645.6700
45.6120	52224.3834
45.6140	59524.0789
45.6160	70003.0180
45.6180	82761.3003
45.6200	93328.7656
45.6220	99876.0186
45.6240	105506.6299
45.6260	112805.1758
45.6280	125721.4058
45.6300	143627.1111
45.6320	162069.4204
45.6340	177030.2972
45.6360	186841.9451
45.6380	193055.2539
45.6400	192537.3006
45.6420	185860.2336
45.6440	210059.9683
45.6460	241322.8468
45.6480	248520.4526
45.6500	252342.8355
45.6520	255061.9130
45.6540	266710.6336
45.6560	284325.2516
45.6580	297183.5366
45.6600	329387.4309
45.6620	344114.4451
45.6640	340077.7877
45.6660	334578.3719
45.6680	344971.8194
45.6700	362134.2249
45.6720	371872.3954
45.6740	391480.2577
45.6760	406742.1588
45.6780	395421.9846
45.6800	389495.9934
45.6820	385890.0559
45.6840	394334.0141
45.6860	425754.0707
45.6880	439044.9703
45.6900	445365.9986
45.6920	429015.9691
45.6940	413626.4150
45.6960	402223.7045
45.6980	410336.9651
45.7000	437102.6649
45.7020	451627.7002
45.7040	450004.8034
45.7060	431947.3672
45.7080	410217.4040
45.7100	398269.7413
45.7120	420160.8297
45.7140	470214.9314
45.7160	516048.8304
45.7180	538001.0217
45.7200	556260.7921
45.7220	648593.8533
45.7240	942788.4809
45.7260	1598024.1920
45.7280	2590682.7161
45.7300	3750448.4202
45.7320	4782833.5960
45.7340	5856050.0118
45.7360	6666304.3246
45.7380	7201207.3363
45.7400	7484955.1501
45.7420	7316280.9263
45.7440	6627072.8113
45.7460	5239653.4609
45.7480	3602729.7952
45.7500	2225205.7934
45.7520	1289680.0276
45.7540	759011.9813
45.7560	479900.6435
45.7580	326053.6735
45.7600	240343.8589
45.7620	200810.6996
45.7640	172381.2493
45.7660	142828.0076
45.7680	116877.7725
45.7700	108720.7077
45.7720	88595.9382
45.7740	75401.1089
45.7760	66864.9685
45.7780	59915.3267
45.7800	53272.0578
45.7820	45335.8889
45.7840	38085.9530
45.7860	32118.5999
45.7880	28685.3284
45.7900	26548.9410
45.7920	25145.0898
45.7940	23644.1002
45.7960	21946.1520
45.7980	20864.6846
45.8000	19994.6324
45.8020	20053.1474
45.8040	19686.0392
45.8060	19270.4359
45.8080	19610.0073
45.8100	20289.5583
45.8120	20884.0260
45.8140	21909.9413
45.8160	21842.6832
45.8180	22047.3068
45.8200	21856.7032
45.8220	21911.2439
45.8240	22622.0235
45.8260	23686.3477
45.8280	24441.0229
45.8300	24109.9627
45.8320	23029.6942
45.8340	22299.1193
45.8360	21744.4075
45.8380	21914.1451
45.8400	22427.4827
45.8420	21934.3104
45.8440	20937.9227
45.8460	19570.2033
45.8480	17867.8861
45.8500	17055.5039
45.8520	16470.2283
45.8540	16296.1241
45.8560	15354.2191
45.8580	13941.3794
45.8600	12451.6553
45.8620	11029.0882
45.8640	10133.5216
45.8660	9181.3883
45.8680	8868.6981
45.8700	8006.0339
45.8720	7134.8210
45.8740	5820.8769
45.8760	4954.6547
45.8780	4512.0502
45.8800	4162.2944
45.8820	3959.4286
45.8840	3469.2408
45.8860	3134.0197
45.8880	2717.3179
45.8900	2338.1168
45.8920	2462.4400
45.8940	2464.3450
45.8960	2451.6313
45.8980	2509.6930
45.9000	2490.0218
45.9020	2744.8584
45.9040	3182.4132
45.9060	3313.9405
45.9080	3417.1018
45.9100	3577.0402
45.9120	3797.9601
45.9140	4222.2199
45.9160	4518.3670
45.9180	4965.2169
45.9200	5312.2617
45.9220	5478.0799
45.9240	5493.1132
45.9260	5603.2312
45.9280	5650.8574
45.9300	6137.4644
45.9320	6372.4037
45.9340	6298.2714
45.9360	6325.9993
45.9380	6207.5342
45.9400	5955.2456
45.9420	5967.0274
45.9440	6110.9391
45.9460	6037.8040
45.9480	5898.5494
45.9500	5531.8348
45.9520	5345.5559
45.9540	4767.6126
45.9560	4597.3412
45.9580	4538.0991
45.9600	4323.4545
45.9620	4118.1051
45.9640	3804.9782
45.9660	3314.5822
45.9680	2974.3710
45.9700	2724.3800
45.9720	2600.3463
45.9740	2440.5113
45.9760	2140.5540
45.9780	1913.8571
45.9800	1671.8375
45.9820	1494.8371
45.9840	1323.3642
45.9860	1169.1411
45.9880	1104.5779
45.9900	1100.3120
45.9920	971.9309
45.9940	930.4342
45.9960	994.6048
45.9980	978.8057
46.0000	965.1181
46.0020	1012.7857
46.0040	1092.0709
46.0060	1155.1435
46.0080	1238.8613
46.0100	1446.9422
46.0120	1538.6739
46.0140	1612.8034
46.0160	1700.2884
46.0180	1767.8957
46.0200	1834.4686
46.0220	1957.5493
46.0240	2191.4103
46.0260	2277.7989
46.0280	2384.7485
46.0300	2413.1995
46.0320	2393.7969
46.0340	2498.0977
46.0360	2455.5859
46.0380	2656.1515
46.0400	2535.2444
46.0420	2418.1693
46.0440	2456.2485
46.0460	2412.0603
46.0480	2378.7856
46.0500	2542.1398
46.0520	2271.4627
46.0540	2219.4880
46.0560	2083.6935
46.0580	2049.5482
46.0600	1958.3772
46.0620	1844.2208
46.0640	1733.2326
46.0660	1660.3249
46.0680	1508.2753
46.0700	1417.3522
46.0720	1244.0584
46.0740	1161.7898
46.0760	1083.6850
46.0780	1024.5875
46.0800	877.2184
46.0820	828.0399
46.0840	773.0843
46.0860	706.7608
46.0880	653.7723
46.0900	620.2482
46.0920	582.2516
46.0940	553.8006
46.0960	535.0401
46.0980	535.4959
46.1000	540.6311
46.1020	558.2732
46.1040	570.3038
46.1060	639.1741
46.1080	667.9571
46.1100	701.6258
46.1120	702.3502
46.1140	840.5469
46.1160	841.7274
46.1180	824.2091
46.1200	916.3334
46.1220	976.4447
46.1240	1012.9096
46.1260	1083.5816
46.1280	1091.3669
46.1300	1194.2173
46.1320	1208.7947
46.1340	1203.8661
46.1360	1177.6522
46.1380	1207.0343
46.1400	1247.8271
46.1420	1271.8055
46.1440	1298.1021
46.1460	1222.6062
46.1480	1213.1846
46.1500	1220.3898
46.1520	1200.6982
46.1540	1213.5786
46.1560	1148.1242
46.1580	1202.6857
46.1600	1007.3186
46.1620	1066.7053
46.1640	987.7507
46.1660	945.6121
46.1680	902.3566
46.1700	873.5737
46.1720	795.7169
46.1740	726.3493
46.1760	687.7316
46.1780	670.9585
46.1800	550.6739
46.1820	586.5588
46.1840	518.0603
46.1860	556.4509
46.1880	464.8446
46.1900	476.2332
46.1920	404.8366
46.1940	407.8601
46.1960	389.8652
46.1980	366.1981
46.2000	395.2496
46.2020	405.4785
46.2040	387.2977
46.2060	387.7743
46.2080	393.4686
46.2100	412.2706
46.2120	437.7600
46.2140	421.7956
46.2160	502.0752
46.2180	475.4879
46.2200	520.4006
46.2220	534.2741
46.2240	564.6094
46.2260	575.8741
46.2280	583.6181
46.2300	571.6495
46.2320	610.5786
46.2340	617.1008
46.2360	643.6053
46.2380	630.1878
46.2400	677.0674
46.2420	601.1156
46.2440	682.0785
46.2460	680.2562
46.2480	649.1550
46.2500	706.1189
46.2520	667.7077
46.2540	656.6097
46.2560	608.3829
46.2580	630.9122
46.2600	659.4459
46.2620	624.5347
46.2640	604.9050
46.2660	598.8787
46.2680	579.6841
46.2700	547.0292
46.2720	509.6538
46.2740	510.9377
46.2760	465.4245
46.2780	490.7692
46.2800	426.2474
46.2820	431.4445
46.2840	398.5831
46.2860	363.0507
46.2880	365.7008
46.2900	383.4050
46.2920	339.2376
46.2940	355.9899
46.2960	318.9245
46.2980	356.8591
46.3000	290.0176
46.3020	311.9257
46.3040	276.6620
46.3060	289.2105
46.3080	328.3875
46.3100	269.5807
46.3120	289.3964
46.3140	314.4520
46.3160	298.7355
46.3180	331.6176
46.3200	303.7259
46.3220	341.1632
46.3240	330.8105
46.3260	367.5232
46.3280	352.5105
46.3300	386.4491
46.3320	344.1661
46.3340	409.8683
46.3360	361.3316
46.3380	428.6910
46.3400	391.7289
46.3420	405.3338
46.3440	429.4775
46.3460	425.0256
46.3480	442.1499
46.3500	437.0562
46.3520	405.3752
46.3540	397.8584
46.3560	464.2440
46.3580	424.3218
46.3600	372.0784
46.3620	438.8785
46.3640	394.7730
46.3660	366.2807
46.3680	371.9545
46.3700	372.0784
46.3720	377.0069
46.3740	343.6068
46.3760	334.7650
46.3780	304.9890
46.3800	308.8403
46.3820	315.1559
46.3840	332.1768
46.3860	332.2182
46.3880	284.2201
46.3900	305.6102
46.3920	304.3058
46.3940	315.8391
46.3960	279.8922
46.3980	261.4427
46.4000	277.8631
46.4020	293.0204
46.4040	274.1358
46.4060	260.8215
46.4080	270.3259
46.4100	320.1876
46.4120	244.4424
46.4140	256.4317
46.4160	273.3700
46.4180	263.3890
46.4200	265.9153
46.4220	303.7466
46.4240	290.4942
46.4260	289.9557
46.4280	277.1799
46.4300	279.2295
46.4320	280.2654
46.4340	273.5766
46.4360	286.0217
46.4380	282.9983
46.4400	265.2320
46.4420	303.1253
46.4440	258.9165
46.4460	302.5248
46.4480	278.6291
46.4500	256.9289
46.4520	275.9788
46.4540	294.9667
46.4560	252.6217
46.4580	272.1482
46.4600	292.4820
46.4620	286.7049
46.4640	242.5994
46.4660	258.8752
46.4680	286.0837
46.4700	279.1882
46.4720	274.7570
46.4740	241.2744
46.4760	253.7609
46.4780	269.6840
46.4800	272.2102
46.4820	247.6313
46.4840	270.2432
46.4860	272.8727
46.4880	276.6207
46.4900	229.2025
46.4920	248.8736
46.4940	250.1781
46.4960	235.4767
46.4980	237.4851
46.5000	211.6843
46.5020	226.6763
46.5040	212.1609
46.5060	234.3375
46.5080	194.5187
46.5100	230.4656
46.5120	209.0135
46.5140	241.2744
46.5160	212.2435
46.5180	231.7494
46.5200	220.5054
46.5220	236.8638
46.5240	193.1730
46.5260	200.1510
46.5280	220.4021
46.5300	248.8531
46.5320	226.1584
46.5340	215.2670
46.5360	236.2426
46.5380	231.2108
46.5400	189.3629
46.5420	231.8733
46.5440	224.8746
46.5460	222.3071
46.5480	236.2013
46.5500	204.4996
46.5520	202.0766
46.5540	207.8537
46.5560	197.7074
46.5580	217.2133
46.5600	212.2435
46.5620	239.3281
46.5640	193.8768
46.5660	218.5385
46.5680	240.6118
46.5700	236.8638
46.5720	214.0245
46.5740	187.6853
46.5760	236.1600
46.5780	195.8438
46.5800	238.6655
46.5820	239.3487
46.5840	218.5798
46.5860	220.9614
46.5880	233.6130
46.5900	220.4641
46.5920	202.7598
46.5940	198.9705
46.5960	202.6979
46.5980	187.5199
46.6000	186.9813
46.6020	203.3812
46.6040	214.0452
46.6060	190.1082
46.6080	166.7716
46.6100	191.2267
46.6120	205.4101
46.6140	197.5835
46.6160	217.9791
46.6180	191.9717
46.6200	179.3201
46.6220	190.7707
46.6240	186.2775
46.6260	177.4977
46.6280	163.5622
46.6300	180.0446
46.6320	149.6060
46.6340	176.8765
46.6360	169.8571
46.6380	200.8962
46.6400	172.3626
46.6420	180.0239
46.6440	179.3407
46.6460	147.1625
46.6480	195.7611
46.6500	197.6248
46.6520	189.5489
46.6540	166.6683
46.6560	149.7920
46.6580	150.9311
46.6600	166.0264
46.6620	189.3836
46.6640	194.5394
46.6660	185.6562
46.6680	185.7595
46.6700	177.5184
46.6720	201.3934
46.6740	199.0119
46.6760	162.3198
46.6780	179.2788
46.6800	153.4780
46.6820	198.2667
46.6840	165.6118
46.6860	179.8587
46.6880	169.8777
46.6900	152.2975
46.6920	159.0690
46.6940	189.4870
46.6960	185.1590
46.6980	164.1421
46.7000	177.5184
46.7020	158.4271
46.7040	175.5721
46.7060	168.6766
46.7080	177.4564
46.7100	168.6146
46.7120	127.5532
46.7140	149.0881
46.7160	151.5523
46.7180	128.8371
46.7200	146.5206
46.7220	166.0264
46.7240	156.6667
46.7260	149.0675
46.7280	166.0884
46.7300	140.8675
46.7320	149.7713
46.7340	160.2908
46.7360	138.8593
46.7380	162.4437
46.7400	149.6267
46.7420	156.0042
46.7440	137.0782
46.7460	143.2904
46.7480	137.0782
46.7500	143.3732
46.7520	160.4561
46.7540	118.1110
46.7560	128.8578
46.7580	136.9749
46.7600	156.0248
46.7620	152.1529
46.7640	150.9518
46.7660	142.6692
46.7680	147.2245
46.7700	150.8691
46.7720	145.3401
46.7740	165.4879
46.7760	137.6995
46.7780	151.5937
46.7800	142.0480
46.7820	178.6989
46.7840	131.3840
46.7860	138.9006
46.7880	118.7942
46.7900	164.7840
46.7920	162.9617
46.7940	150.9105
46.7960	135.2352
46.7980	148.9642
46.8000	180.0033
46.8020	143.3524
46.8040	130.1415
46.8060	138.9626
46.8080	134.5107
46.8100	141.4889
46.8120	150.8898
46.8140	137.7201
46.8160	116.7651
46.8180	144.0770
46.8200	140.8056
46.8220	130.1415
46.8240	138.3413
46.8260	111.1122
46.8280	130.7214
46.8300	142.1100
46.8320	123.8053
46.8340	135.7532
46.8360	137.6581
46.8380	135.8565
46.8400	122.4389
46.8420	123.1840
46.8440	119.9953
46.8460	108.0061
46.8480	129.4995
46.8500	131.9845
46.8520	123.7639
46.8540	135.7738
46.8560	135.1733
46.8580	137.6581
46.8600	129.4995
46.8620	114.3217
46.8640	128.8371
46.8660	125.6896
46.8680	147.1005
46.8700	155.9422
46.8720	125.1097
46.8740	129.4377
46.8760	152.1942
46.8780	132.6264
46.8800	154.0785
46.8820	135.8358
46.8840	149.6887
46.8860	120.5959
46.8880	136.4157
46.8900	120.6992
46.8920	132.6057
46.8940	116.7651
46.8960	133.3096
46.8980	126.9527
46.9000	107.3022
46.9020	135.1526
46.9040	154.1818
46.9060	114.9221
46.9080	128.1538
46.9100	150.9724
46.9120	121.2377
46.9140	148.4876
46.9160	152.7535
46.9180	101.0694
46.9200	142.7312
46.9220	102.3118
46.9240	126.9941
46.9260	134.4694
46.9280	114.9636
46.9300	124.4058
46.9320	149.0055
46.9340	137.0989
46.9360	119.9540
46.9380	132.6677
46.9400	125.0270
46.9420	126.8907
46.9440	91.6270
46.9460	127.5739
46.9480	114.2596
46.9500	140.2463
46.9520	125.0684
46.9540	129.4995
46.9560	118.7115
46.9580	125.6276
46.9600	139.6044
46.9620	137.0782
46.9640	97.8805
46.9660	112.4166
46.9680	116.1439
46.9700	125.0890
46.9720	104.2374
46.9740	109.2898
46.9760	107.9234
46.9780	111.1948
46.9800	114.9429
46.9820	123.1221
46.9840	121.2791
46.9860	140.2050
46.9880	124.4265
46.9900	125.6276
46.9920	134.5727
46.9940	119.3328
46.9960	126.3316
46.9980	135.7945
47.0000	114.9636
47.0020	126.8700
47.0040	110.5736
47.0060	106.0804
47.0080	105.4592
47.0100	99.7856
47.0120	137.0369
47.0140	102.3531
47.0160	99.1436
47.0180	114.9429
47.0200	92.8901
47.0220	86.4713
47.0240	117.5104
47.0260	104.0928
47.0280	108.6893
47.0300	97.3214
47.0320	87.7344
47.0340	84.6075
47.0360	99.1849
47.0380	85.8914
47.0400	125.0064
47.0420	96.6795
47.0440	124.3645
47.0460	84.6696
47.0480	109.8284
47.0500	115.6468
47.0520	122.5008
47.0540	125.6896
47.0560	99.1023
47.0580	137.7201
47.0600	101.6493
47.0620	113.7211
47.0640	137.0163
47.0660	138.3000
47.0680	126.3521
47.0700	92.1862
47.0720	121.9209
47.0740	115.5641
47.0760	116.8479
47.0780	115.5435
47.0800	104.8380
47.0820	104.8793
47.0840	95.9342
47.0860	121.9003
47.0880	144.6568
47.0900	113.0378
47.0920	101.0074
47.0940	116.2267
47.0960	124.4678
47.0980	105.3972
47.1000	121.9416
47.1020	111.7127
47.1040	121.9416
47.1060	110.5944
47.1080	102.8504
47.1100	101.0900
47.1120	105.4179
47.1140	122.5628
47.1160	116.2473
47.1180	101.0074
47.1200	97.2593
47.1220	88.4383
47.1240	84.0071
47.1260	96.0170
47.1280	83.9450
47.1300	92.2276
47.1320	100.4275
47.1340	96.5761
47.1360	115.6054
47.1380	94.1119
47.1400	92.8488
47.1420	88.9975
47.1440	96.0583
47.1460	95.9549
47.1480	82.7645
47.1500	78.3127
47.1520	95.9962
47.1540	94.7124
47.1560	111.1743
47.1580	92.1656
47.1600	99.1849
47.1620	116.2060
47.1640	81.4395
47.1660	104.7760
47.1680	111.8160
47.1700	104.8587
47.1720	101.6493
47.1740	101.7319
47.1760	102.3118
47.1780	132.0052
47.1800	100.4275
47.1820	115.5641
47.1840	114.9221
47.1860	110.5323
47.1880	110.4910
47.1900	97.9426
47.1920	86.5126
47.1940	106.1218
47.1960	96.6381
47.1980	116.1439
47.2000	90.9851
47.2020	109.2485
47.2040	92.1656
47.2060	111.8368
47.2080	81.4601
47.2100	101.0694
47.2120	114.9016
47.2140	82.1433
47.2160	85.2495
47.2180	80.8389
47.2200	99.7235
47.2220	78.3953
47.2240	61.2504
47.2260	97.8805
47.2280	92.2069
47.2300	81.4808
47.2320	98.5017
47.2340	62.5342
47.2360	73.9435
47.2380	83.3238
47.2400	90.2606
47.2420	99.8682
47.2440	73.2396
47.2460	87.7757
47.2480	82.0813
47.2500	73.2603
47.2520	89.6807
47.2540	65.7229
47.2560	66.9655
47.2580	94.0292
47.2600	108.0474
47.2620	79.5551
47.2640	97.2801
47.2660	78.2714
47.2680	83.4065
47.2700	102.9124
47.2720	97.9218
47.2740	76.3664
47.2760	96.6587
47.2780	63.7560
47.2800	106.7843
47.2820	88.3969
47.2840	75.1446
47.2860	78.3127
47.2880	94.7331
47.2900	85.8706
47.2920	102.9743
47.2940	107.9648
47.2960	87.7964
47.2980	89.6600
47.3000	86.5953
47.3020	73.7989
47.3040	108.0887
47.3060	65.6609
47.3080	81.4188
47.3100	82.1020
47.3120	73.9642
47.3140	100.9661
47.3160	91.0264
47.3180	80.1557
47.3200	100.4481
47.3220	86.5333
47.3240	69.4297
47.3260	94.7538
47.3280	90.2399
47.3300	103.0363
47.3320	87.1132
47.3340	51.1662
47.3360	77.7328
47.3380	64.3772
47.3400	71.9765
47.3420	54.9762
47.3440	78.9752
47.3460	83.3444
47.3480	92.1862
47.3500	82.7645
47.3520	78.9339
47.3540	63.1347
47.3560	77.0909
47.3580	78.9133
47.3600	93.4493
47.3620	78.9752
47.3640	86.4713
47.3660	91.0058
47.3680	84.6075
47.3700	76.4077
47.3720	87.1132
47.3740	91.0058
47.3760	91.5650
47.3780	77.6502
47.3800	96.6174
47.3820	77.0703
47.3840	94.7124
47.3860	89.7220
47.3880	78.3127
47.3900	116.2060
47.3920	97.1973
47.3940	98.5845
47.3960	109.8284
47.3980	91.6270
47.4000	71.9972
47.4020	99.7856
47.4040	94.0912
47.4060	78.3334
47.4080	77.0703
47.4100	76.9463
47.4120	100.5101
47.4140	70.1129
47.4160	61.2504
47.4180	68.8290
47.4200	78.3540
47.4220	85.8706
47.4240	70.0716
47.4260	67.5659
47.4280	61.2917
47.4300	68.8290
47.4320	68.1871
47.4340	78.9546
47.4360	73.2603
47.4380	73.2603
47.4400	69.5123
47.4420	63.7353
47.4440	74.5234
47.4460	53.6925
47.4480	72.5978
47.4500	61.3124
47.4520	48.5987
47.4540	59.4074
47.4560	86.5126
47.4580	68.8498
47.4600	44.8507
47.4620	66.2822
47.4640	79.5551
47.4660	77.6708
47.4680	77.1116
47.4700	82.6406
47.4720	97.3214
47.4740	88.9975
47.4760	72.6597
47.4780	72.6597
47.4800	80.1970
47.4820	74.4821
47.4840	80.9215
47.4860	83.9450
47.4880	78.2714
47.4900	94.1739
47.4920	68.8498
47.4940	58.0823
47.4960	97.9013
47.4980	89.6187
47.5000	98.5225
47.5020	103.6162
47.5040	94.0912
47.5060	70.7341
47.5080	69.4502
47.5100	73.2810
47.5120	63.1761
47.5140	89.0595
47.5160	94.6918
47.5180	71.3966
47.5200	77.0703
47.5220	53.0506
47.5240	68.1871
47.5260	85.2495
47.5280	66.9240
47.5300	59.4281
47.5320	71.2932
47.5340	70.7961
47.5360	66.9034
47.5380	73.2603
47.5400	59.3661
47.5420	60.6292
47.5440	78.3127
47.5460	70.1129
47.5480	66.9240
47.5500	61.8923
47.5520	58.0823
47.5540	56.2600
47.5560	71.3553
47.5580	63.1554
47.5600	65.5990
47.5620	65.1225
47.5640	68.8911
47.5660	71.3347
47.5680	74.5027
47.5700	90.3432
47.5720	80.1557
47.5740	75.1859
47.5760	68.8085
47.5780	52.4499
47.5800	82.0813
47.5820	58.7036
47.5840	78.3540
47.5860	71.9972
47.5880	80.2177
47.5900	73.2396
47.5920	73.3016
47.5940	77.6502
47.5960	68.2286
47.5980	66.9240
47.6000	80.8802
47.6020	59.3248
47.6040	65.7229
47.6060	73.2396
47.6080	70.6928
47.6100	85.2702
47.6120	60.6499
47.6140	61.8923
47.6160	71.9559
47.6180	85.9327
47.6200	65.0810
47.6220	70.0508
47.6240	69.5123
47.6260	58.1237
47.6280	73.8402
47.6300	71.9765
47.6320	54.3137
47.6340	56.2393
47.6360	64.4598
47.6380	74.4614
47.6400	54.9762
47.6420	78.9133
47.6440	59.4074
47.6460	49.8618
47.6480	49.2612
47.6500	46.7350
47.6520	73.2396
47.6540	56.1980
47.6560	73.2810
47.6580	80.1970
47.6600	78.9959
47.6620	41.0614
47.6640	46.6730
47.6660	71.3966
47.6680	77.6708
47.6700	48.6400
47.6720	68.2286
47.6740	76.3871
47.6760	76.3871
47.6780	65.0397
47.6800	63.8179
47.6820	73.2603
47.6840	68.2079
47.6860	71.3760
47.6880	77.0083
47.6900	78.9959
47.6920	62.5342
47.6940	67.5453
47.6960	74.5234
47.6980	70.0922
47.7000	75.8278
47.7020	53.0506
47.7040	58.1237
47.7060	47.9774
47.7080	50.4830
47.7100	93.4700
47.7120	50.5864
47.7140	61.8303
47.7160	69.4917
47.7180	57.5024
47.7200	55.5561
47.7220	54.3344
47.7240	66.9240
47.7260	62.5135
47.7280	57.4818
47.7300	68.8498
47.7320	42.3451
47.7340	47.3356
47.7360	54.9762
47.7380	59.3248
47.7400	69.4917
47.7420	47.3149
47.7440	61.2917
47.7460	46.7350
47.7480	43.5463
47.7500	65.7229
47.7520	53.0298
47.7540	68.2492
47.7560	56.7779
47.7580	54.9969
47.7600	61.2504
47.7620	42.9457
47.7640	61.2504
47.7660	42.9457
47.7680	55.5975
47.7700	65.0604
47.7720	46.0931
47.7740	64.9777
47.7760	54.3757
47.7780	56.7986
47.7800	65.1225
47.7820	61.2091
47.7840	56.8399
47.7860	44.2295
47.7880	59.3868
47.7900	56.8606
47.7920	64.3978
47.7940	74.5234
47.7960	50.4830
47.7980	50.5450
47.8000	44.8300
47.8020	73.2810
47.8040	49.8618
47.8060	65.7023
47.8080	58.0823
47.8100	57.4611
47.8120	51.1455
47.8140	67.6280
47.8160	54.9349
47.8180	56.8399
47.8200	58.0823
47.8220	63.7973
47.8240	62.4929
47.8260	63.1761
47.8280	58.7449
47.8300	59.3454
47.8320	57.5231
47.8340	44.2088
47.8360	54.2929
47.8380	51.1662
47.8400	47.9981
47.8420	47.3975
47.8440	49.8411
47.8460	42.3245
47.8480	53.6512
47.8500	72.6597
47.8520	47.3356
47.8540	46.7763
47.8560	38.5144
47.8580	50.5243
47.8600	58.7449
47.8620	41.0614
47.8640	46.7557
47.8660	43.5669
47.8680	37.8725
47.8700	63.7560
47.8720	55.5768
47.8740	53.7131
47.8760	51.7461
47.8780	51.8287
47.8800	41.0614
47.8820	52.3880
47.8840	66.3235
47.8860	51.7667
47.8880	61.9130
47.8900	49.8824
47.8920	44.8507
47.8940	71.9765
47.8960	68.8498
47.8980	40.4402
47.9000	45.4512
47.9020	61.9130
47.9040	57.4611
47.9060	55.5768
47.9080	58.7242
47.9100	53.6925
47.9120	48.0188
47.9140	34.7251
47.9160	44.8300
47.9180	53.0713
47.9200	46.7143
47.9220	36.6301
47.9240	45.4926
47.9260	31.5364
47.9280	48.0394
47.9300	40.4402
47.9320	46.7143
47.9340	52.3880
47.9360	48.0188
47.9380	54.9349
47.9400	51.7667
47.9420	38.5765
47.9440	42.2625
47.9460	35.3877
47.9480	46.0931
47.9500	51.8082
47.9520	36.0089
47.9540	51.7667
47.9560	48.0188
47.9580	44.7887
47.9600	58.1443
47.9620	47.3562
47.9640	65.0191
47.9660	48.6606
47.9680	31.5777
47.9700	47.9981
47.9720	52.4086
47.9740	51.8082
47.9760	58.0617
47.9780	62.5548
47.9800	57.4611
47.9820	57.5024
47.9840	39.1151
47.9860	47.3975
47.9880	52.4086
47.9900	36.0295
47.9920	44.8094
47.9940	42.9457
47.9960	65.0604
47.9980	53.0506
48.0000	29.0722
