#Collected Data-3
#Intensity_unit=cps
43.0000	42.2625
43.0020	56.8812
43.0040	42.3245
43.0060	55.5355
43.0080	53.0713
43.0100	52.4499
43.0120	37.2100
43.0140	70.7548
43.0160	60.6085
43.0180	54.9969
43.0200	58.0410
43.0220	56.9019
43.0240	50.5243
43.0260	64.9777
43.0280	69.4710
43.0300	63.8386
43.0320	54.9349
43.0340	59.3661
43.0360	46.1344
43.0380	57.4818
43.0400	66.3028
43.0420	53.6717
43.0440	61.2711
43.0460	58.0617
43.0480	52.4499
43.0500	64.3772
43.0520	73.8815
43.0540	64.4598
43.0560	50.5243
43.0580	65.6609
43.0600	60.6499
43.0620	81.4601
43.0640	75.1446
43.0660	61.8716
43.0680	46.0931
43.0700	81.4601
43.0720	61.3124
43.0740	54.2516
43.0760	76.5110
43.0780	56.1567
43.0800	52.4707
43.0820	59.3248
43.0840	54.3137
43.0860	81.4601
43.0880	73.9435
43.0900	36.6301
43.0920	72.5771
43.0940	75.2066
43.0960	48.5987
43.0980	73.2396
43.1000	78.3747
43.1020	64.3978
43.1040	55.5768
43.1060	45.4926
43.1080	41.0407
43.1100	33.4414
43.1120	62.5135
43.1140	56.8399
43.1160	71.9765
43.1180	56.2393
43.1200	64.9984
43.1220	72.6804
43.1240	70.7134
43.1260	70.7341
43.1280	37.3134
43.1300	66.9034
43.1320	68.8290
43.1340	62.5548
43.1360	62.4929
43.1380	69.4917
43.1400	70.0922
43.1420	65.7229
43.1440	64.4185
43.1460	80.7563
43.1480	65.7023
43.1500	70.7548
43.1520	90.3226
43.1540	82.0813
43.1560	67.6072
43.1580	72.6184
43.1600	67.5867
43.1620	95.9755
43.1640	82.1020
43.1660	87.1545
43.1680	69.4502
43.1700	86.5539
43.1720	77.0083
43.1740	72.0385
43.1760	79.5758
43.1780	61.8510
43.1800	72.6804
43.1820	80.8182
43.1840	75.1446
43.1860	81.4808
43.1880	85.2495
43.1900	76.4284
43.1920	85.9327
43.1940	68.1458
43.1960	68.8704
43.1980	68.2492
43.2000	68.1458
43.2020	57.5024
43.2040	72.6184
43.2060	72.6184
43.2080	88.9975
43.2100	75.2066
43.2120	46.7763
43.2140	81.9987
43.2160	83.3859
43.2180	86.5746
43.2200	58.7242
43.2220	70.0922
43.2240	70.1335
43.2260	63.7766
43.2280	61.2504
43.2300	87.7757
43.2320	83.3444
43.2340	93.4493
43.2360	96.6381
43.2380	48.0394
43.2400	61.9130
43.2420	67.5659
43.2440	101.6078
43.2460	99.8063
43.2480	75.8072
43.2500	82.7853
43.2520	80.1764
43.2540	106.6810
43.2560	94.1532
43.2580	82.0813
43.2600	104.2168
43.2620	89.7014
43.2640	92.7868
43.2660	86.5953
43.2680	88.9768
43.2700	108.7099
43.2720	94.0499
43.2740	70.6720
43.2760	116.9099
43.2780	92.1656
43.2800	80.8597
43.2820	76.4904
43.2840	91.5650
43.2860	82.0813
43.2880	73.2190
43.2900	107.9648
43.2920	85.2702
43.2940	84.0276
43.2960	56.8399
43.2980	70.7341
43.3000	99.1231
43.3020	84.0276
43.3040	72.6184
43.3060	70.7548
43.3080	78.3127
43.3100	78.9339
43.3120	72.6391
43.3140	92.8694
43.3160	76.4077
43.3180	111.7334
43.3200	80.2798
43.3220	46.0311
43.3240	108.6480
43.3260	102.2911
43.3280	110.5323
43.3300	102.3325
43.3320	82.0607
43.3340	113.0791
43.3360	109.8904
43.3380	97.2593
43.3400	114.9016
43.3420	117.4898
43.3440	107.3229
43.3460	106.1218
43.3480	104.2581
43.3500	112.9965
43.3520	131.3840
43.3540	107.9234
43.3560	121.3410
43.3580	116.2060
43.3600	119.3741
43.3620	125.6276
43.3640	110.5323
43.3660	128.1538
43.3680	125.1511
43.3700	99.1436
43.3720	96.0170
43.3740	106.6603
43.3760	107.9854
43.3780	130.1828
43.3800	91.5237
43.3820	124.9857
43.3840	106.1218
43.3860	118.7529
43.3880	113.1206
43.3900	103.5336
43.3920	105.4799
43.3940	124.3645
43.3960	93.5526
43.3980	107.3435
43.4000	110.5116
43.4020	113.0378
43.4040	96.0583
43.4060	104.7554
43.4080	103.6162
43.4100	97.2386
43.4120	101.7112
43.4140	124.3852
43.4160	121.8590
43.4180	109.9524
43.4200	104.8173
43.4220	111.7541
43.4240	107.4055
43.4260	101.6906
43.4280	109.8491
43.4300	139.5631
43.4320	135.7945
43.4340	161.0360
43.4360	127.5947
43.4380	129.4790
43.4400	139.5425
43.4420	129.4995
43.4440	135.1939
43.4460	142.0067
43.4480	148.4256
43.4500	129.5203
43.4520	128.7337
43.4540	135.8358
43.4560	155.9835
43.4580	146.4793
43.4600	137.7201
43.4620	144.6568
43.4640	148.4256
43.4660	145.2575
43.4680	155.9629
43.4700	133.9102
43.4720	145.8787
43.4740	139.5631
43.4760	141.4061
43.4780	159.8556
43.4800	152.8361
43.4820	120.0366
43.4840	135.0906
43.4860	138.9419
43.4880	125.0890
43.4900	134.4901
43.4920	121.9209
43.4940	118.0697
43.4960	137.6581
43.4980	129.4377
43.5000	153.5400
43.5020	115.6468
43.5040	143.3319
43.5060	125.6483
43.5080	114.9429
43.5100	128.1538
43.5120	154.7617
43.5140	140.8262
43.5160	169.8571
43.5180	132.0465
43.5200	130.0794
43.5220	120.6372
43.5240	144.0151
43.5260	160.3527
43.5280	147.7837
43.5300	138.9419
43.5320	185.0763
43.5340	158.5510
43.5360	165.9851
43.5380	192.0338
43.5400	151.5730
43.5420	188.2444
43.5440	166.0678
43.5460	185.0970
43.5480	200.7929
43.5500	202.6979
43.5520	168.6559
43.5540	186.8987
43.5560	185.0557
43.5580	193.2556
43.5600	192.6550
43.5620	215.3083
43.5640	187.6645
43.5660	192.5724
43.5680	176.8559
43.5700	165.4465
43.5720	179.3821
43.5740	150.3306
43.5760	183.7719
43.5780	174.9922
43.5800	140.1637
43.5820	149.6680
43.5840	140.2050
43.5860	152.7741
43.5880	180.6658
43.5900	145.8994
43.5920	133.8895
43.5940	157.2466
43.5960	142.1306
43.5980	154.7824
43.6000	141.4268
43.6020	143.2904
43.6040	140.8675
43.6060	154.6791
43.6080	191.3919
43.6100	178.1396
43.6120	140.8262
43.6140	174.2882
43.6160	155.4243
43.6180	143.9530
43.6200	227.3182
43.6220	202.8218
43.6240	186.8987
43.6260	198.8879
43.6280	180.7071
43.6300	227.2769
43.6320	212.2435
43.6340	219.7601
43.6360	210.2766
43.6380	219.1389
43.6400	233.6958
43.6420	222.9490
43.6440	197.6661
43.6460	206.5286
43.6480	197.6455
43.6500	238.0856
43.6520	267.8203
43.6540	215.3496
43.6560	241.2330
43.6580	201.5382
43.6600	222.9490
43.6620	251.2965
43.6640	239.9699
43.6660	251.9592
43.6680	214.2311
43.6700	218.4144
43.6720	246.8240
43.6740	241.3157
43.6760	209.7586
43.6780	234.8968
43.6800	226.7589
43.6820	207.1498
43.6840	205.9280
43.6860	194.4774
43.6880	242.5788
43.6900	223.5082
43.6920	245.6229
43.6940	216.0949
43.6960	222.9077
43.6980	199.5298
43.7000	218.5590
43.7020	204.5615
43.7040	218.5798
43.7060	183.7926
43.7080	214.1278
43.7100	220.9200
43.7120	204.5615
43.7140	263.4718
43.7160	217.2959
43.7180	234.8761
43.7200	231.7080
43.7220	250.1368
43.7240	251.4206
43.7260	239.9080
43.7280	276.0615
43.7300	263.2857
43.7320	297.4930
43.7340	287.3881
43.7360	287.4295
43.7380	282.7916
43.7400	286.1250
43.7420	276.5794
43.7440	276.0408
43.7460	274.1358
43.7480	310.0621
43.7500	322.6105
43.7520	292.4612
43.7540	320.8915
43.7560	298.6527
43.7580	335.3449
43.7600	283.5782
43.7620	289.3964
43.7640	289.8110
43.7660	305.6102
43.7680	308.8403
43.7700	294.8841
43.7720	330.3752
43.7740	281.6524
43.7760	281.6732
43.7780	272.9760
43.7800	301.0551
43.7820	249.5569
43.7840	272.1895
43.7860	297.4517
43.7880	264.0517
43.7900	255.1272
43.7920	274.6537
43.7940	259.0611
43.7960	253.9055
43.7980	244.9810
43.8000	303.7672
43.8020	260.2416
43.8040	270.9677
43.8060	294.8841
43.8080	287.2642
43.8100	328.4289
43.8120	275.5022
43.8140	291.6541
43.8160	318.8625
43.8180	318.3033
43.8200	343.6068
43.8220	313.2922
43.8240	312.6090
43.8260	332.7774
43.8280	329.6093
43.8300	337.8711
43.8320	346.1950
43.8340	371.9750
43.8360	361.8702
43.8380	383.8196
43.8400	377.8553
43.8420	389.5759
43.8440	360.7104
43.8460	339.0722
43.8480	365.0590
43.8500	354.4361
43.8520	357.3564
43.8540	381.3554
43.8560	375.8471
43.8580	376.5096
43.8600	368.7656
43.8620	406.0169
43.8640	427.5931
43.8660	360.6898
43.8680	393.3859
43.8700	385.8486
43.8720	394.1518
43.8740	373.2381
43.8760	338.4717
43.8780	339.8794
43.8800	328.9260
43.8820	369.5316
43.8840	305.0923
43.8860	375.6818
43.8880	349.8603
43.8900	345.4498
43.8920	363.7959
43.8940	377.6281
43.8960	354.9748
43.8980	360.0479
43.9000	351.7860
43.9020	293.0204
43.9040	344.1246
43.9060	360.6484
43.9080	375.1225
43.9100	397.8998
43.9120	420.5325
43.9140	382.1419
43.9160	394.0485
43.9180	440.1623
43.9200	461.0759
43.9220	508.4528
43.9240	461.6557
43.9260	453.4352
43.9280	469.1931
43.9300	450.9917
43.9320	473.5210
43.9340	483.8531
43.9360	468.5306
43.9380	545.1242
43.9400	560.7581
43.9420	512.2628
43.9440	551.8130
43.9460	535.7026
43.9480	563.8849
43.9500	543.8818
43.9520	570.1384
43.9540	566.0172
43.9560	512.2008
43.9580	530.4022
43.9600	528.0619
43.9620	512.1595
43.9640	527.9586
43.9660	517.3358
43.9680	482.4454
43.9700	445.3799
43.9720	449.5426
43.9740	498.2238
43.9760	457.3898
43.9780	500.0256
43.9800	489.0709
43.9820	457.8044
43.9840	469.8556
43.9860	457.1419
43.9880	474.4935
43.9900	443.2064
43.9920	453.5385
43.9940	426.3094
43.9960	463.4575
43.9980	448.4035
44.0000	462.3597
44.0020	445.9393
44.0040	467.9920
44.0060	499.2805
44.0080	562.3311
44.0100	493.7514
44.0120	560.7788
44.0140	512.8840
44.0160	575.8328
44.0180	545.0829
44.0200	533.6323
44.0220	528.1446
44.0240	626.9783
44.0260	640.4166
44.0280	673.2367
44.0300	634.7223
44.0320	670.1306
44.0340	640.8312
44.0360	680.2976
44.0380	742.6664
44.0400	732.0643
44.0420	668.7021
44.0440	702.9714
44.0460	737.4899
44.0480	663.2145
44.0500	698.0223
44.0520	688.9119
44.0540	675.8868
44.0560	679.4903
44.0580	696.5113
44.0600	665.7820
44.0620	597.5535
44.0640	626.4810
44.0660	632.6933
44.0680	661.1648
44.0700	612.7935
44.0720	597.9888
44.0740	579.8493
44.0760	604.3249
44.0780	592.9157
44.0800	557.2167
44.0820	595.5452
44.0840	578.5449
44.0860	563.2843
44.0880	551.2951
44.0900	584.2806
44.0920	583.5147
44.0940	582.7902
44.0960	595.0894
44.0980	684.4808
44.1000	611.3858
44.1020	594.9033
44.1040	638.5116
44.1060	678.7864
44.1080	701.7704
44.1100	703.4067
44.1120	729.4554
44.1140	800.8727
44.1160	798.8851
44.1180	717.5075
44.1200	755.2355
44.1220	805.9458
44.1240	812.7999
44.1260	819.0741
44.1280	872.2072
44.1300	832.3057
44.1320	874.1536
44.1340	861.8544
44.1360	881.6289
44.1380	887.4473
44.1400	928.2400
44.1420	885.7282
44.1440	870.2403
44.1460	870.9648
44.1480	789.3394
44.1500	872.9317
44.1520	862.6823
44.1540	858.1272
44.1560	879.7859
44.1580	866.4510
44.1600	879.3300
44.1620	745.8758
44.1640	758.9835
44.1660	734.5491
44.1680	794.3505
44.1700	825.6168
44.1720	754.1790
44.1740	781.2634
44.1760	729.9113
44.1780	780.6423
44.1800	738.4005
44.1820	707.1960
44.1840	730.2212
44.1860	744.5714
44.1880	754.0344
44.1900	760.2673
44.1920	800.8520
44.1940	833.6102
44.1960	825.3689
44.1980	796.5035
44.2000	816.4858
44.2020	859.6589
44.2040	877.3217
44.2060	861.2333
44.2080	934.6794
44.2100	882.3328
44.2120	932.7539
44.2140	1017.3408
44.2160	1007.3186
44.2180	997.2964
44.2200	1048.9185
44.2220	1090.6424
44.2240	1041.5671
44.2260	1091.7401
44.2280	1179.2666
44.2300	1211.0524
44.2320	1178.6660
44.2340	1126.7340
44.2360	1122.3234
44.2380	1096.5227
44.2400	1127.1486
44.2420	1119.5285
44.2440	1192.4982
44.2460	1133.7740
44.2480	1151.2923
44.2500	1073.7041
44.2520	1119.0520
44.2540	1098.8835
44.2560	1081.7180
44.2580	1120.6871
44.2600	1054.0536
44.2620	1013.5928
44.2640	929.8337
44.2660	981.3732
44.2680	952.3837
44.2700	913.5593
44.2720	967.7889
44.2740	958.0986
44.2760	921.4272
44.2780	913.7865
44.2800	896.2891
44.2820	895.3992
44.2840	913.8280
44.2860	930.3309
44.2880	940.4358
44.2900	996.5717
44.2920	934.7002
44.2940	1039.2902
44.2960	932.4425
44.2980	1060.3485
44.3000	1121.4336
44.3020	1084.4302
44.3040	1110.3135
44.3060	1106.5036
44.3080	1111.4733
44.3100	1199.2904
44.3120	1191.7736
44.3140	1252.2582
44.3160	1309.3254
44.3180	1291.3733
44.3200	1350.9254
44.3220	1296.6324
44.3240	1427.7477
44.3260	1385.6092
44.3280	1448.2467
44.3300	1444.3540
44.3320	1567.9940
44.3340	1505.7904
44.3360	1479.6798
44.3380	1454.9148
44.3400	1517.7383
44.3420	1482.1647
44.3440	1441.9931
44.3460	1438.7011
44.3480	1477.8368
44.3500	1422.2393
44.3520	1367.5730
44.3540	1451.6021
44.3560	1424.4336
44.3580	1336.8659
44.3600	1349.8069
44.3620	1272.5093
44.3640	1254.3286
44.3660	1192.4569
44.3680	1211.1970
44.3700	1160.1134
44.3720	1224.1999
44.3740	1207.9876
44.3760	1150.5471
44.3780	1159.1602
44.3800	1148.0622
44.3820	1194.7766
44.3840	1195.6250
44.3860	1144.9353
44.3880	1226.0016
44.3900	1319.2443
44.3920	1240.4137
44.3940	1282.6349
44.3960	1237.9082
44.3980	1284.5192
44.4000	1369.1681
44.4020	1370.9905
44.4040	1414.7846
44.4060	1549.0061
44.4080	1569.2571
44.4100	1597.2935
44.4120	1543.5184
44.4140	1619.3669
44.4160	1687.5127
44.4180	1804.8165
44.4200	1840.9907
44.4220	1958.4391
44.4240	1773.0322
44.4260	1833.0181
44.4280	1897.9339
44.4300	1910.9176
44.4320	1878.9046
44.4340	1890.2106
44.4360	1856.1893
44.4380	1990.4315
44.4400	1884.1637
44.4420	1841.7566
44.4440	1839.5003
44.4460	1881.5961
44.4480	1790.9636
44.4500	1776.9234
44.4520	1725.0754
44.4540	1661.7326
44.4560	1562.4650
44.4580	1650.2614
44.4600	1667.3856
44.4620	1623.1355
44.4640	1487.2997
44.4660	1529.1269
44.4680	1361.0302
44.4700	1414.6400
44.4720	1369.9546
44.4740	1401.9469
44.4760	1487.2791
44.4780	1451.2288
44.4800	1379.8322
44.4820	1389.7291
44.4840	1330.5710
44.4860	1460.1532
44.4880	1429.0315
44.4900	1388.4660
44.4920	1517.4904
44.4940	1561.0779
44.4960	1628.7265
44.4980	1606.6738
44.5000	1736.1114
44.5020	1722.6112
44.5040	1829.8087
44.5060	1929.2017
44.5080	2008.8602
44.5100	2002.1300
44.5120	2064.9755
44.5140	2148.5886
44.5160	2211.5787
44.5180	2302.6878
44.5200	2279.2273
44.5220	2307.5956
44.5240	2374.5610
44.5260	2256.5947
44.5280	2384.9345
44.5300	2356.1117
44.5320	2464.7390
44.5340	2463.2265
44.5360	2523.8557
44.5380	2462.4607
44.5400	2391.8299
44.5420	2264.1114
44.5440	2317.3479
44.5460	2275.2934
44.5480	2214.9534
44.5500	2216.6931
44.5520	2129.7453
44.5540	2043.7093
44.5560	1998.8999
44.5580	2011.0544
44.5600	1960.0549
44.5620	1916.2800
44.5640	1834.8611
44.5660	1824.4464
44.5680	1840.9907
44.5700	1725.3853
44.5720	1640.1978
44.5740	1662.7051
44.5760	1710.7666
44.5780	1681.6738
44.5800	1744.2493
44.5820	1739.8594
44.5840	1759.5306
44.5860	1736.7533
44.5880	1677.4905
44.5900	1858.4263
44.5920	1904.2908
44.5940	2054.3114
44.5960	2024.6800
44.5980	2179.5038
44.6000	2165.3616
44.6020	2252.5988
44.6040	2389.3864
44.6060	2424.5055
44.6080	2444.1973
44.6100	2506.4422
44.6120	2579.0399
44.6140	2719.6789
44.6160	2763.9718
44.6180	2780.3287
44.6200	2820.2936
44.6220	2934.0974
44.6240	2963.8939
44.6260	2946.2104
44.6280	3017.9596
44.6300	3102.4627
44.6320	3034.6279
44.6340	3177.8979
44.6360	3130.0858
44.6380	2980.2936
44.6400	2926.4774
44.6420	2977.2703
44.6440	2943.1251
44.6460	2785.2985
44.6480	2745.8529
44.6500	2737.7975
44.6520	2634.6358
44.6540	2603.0183
44.6560	2461.4455
44.6580	2460.9290
44.6600	2172.4416
44.6620	2254.4418
44.6640	2217.5623
44.6660	2167.6385
44.6680	2119.1032
44.6700	2090.8162
44.6720	1926.7168
44.6740	1962.3731
44.6760	2028.9253
44.6780	2077.7512
44.6800	2060.7716
44.6820	2172.1111
44.6840	2132.6654
44.6860	2098.6442
44.6880	2104.5038
44.6900	2220.7938
44.6920	2246.3865
44.6940	2460.9910
44.6960	2641.8219
44.6980	2639.9997
44.7000	2722.2270
44.7020	2716.9460
44.7040	2929.7693
44.7060	3023.0947
44.7080	3176.8621
44.7100	3362.5609
44.7120	3501.0264
44.7140	3349.3899
44.7160	3604.9732
44.7180	3663.3666
44.7200	3709.9351
44.7220	3868.7562
44.7240	3917.8728
44.7260	4105.5153
44.7280	4084.7477
44.7300	3952.8457
44.7320	3863.0204
44.7340	3884.0788
44.7360	3963.1159
44.7380	3857.9048
44.7400	3717.8456
44.7420	3681.9195
44.7440	3734.9907
44.7460	3528.2335
44.7480	3397.7821
44.7500	3319.3041
44.7520	3212.6229
44.7540	3003.2155
44.7560	3112.2989
44.7580	2999.7981
44.7600	2718.3538
44.7620	2598.2758
44.7640	2692.0983
44.7660	2608.3394
44.7680	2530.7305
44.7700	2522.3654
44.7720	2478.4871
44.7740	2294.6119
44.7760	2358.6792
44.7780	2260.4667
44.7800	2402.8053
44.7820	2421.3993
44.7840	2413.9653
44.7860	2623.9111
44.7880	2684.2717
44.7900	2611.7553
44.7920	2951.8015
44.7940	2934.0354
44.7960	3074.0751
44.7980	3356.2441
44.8000	3522.4579
44.8020	3599.1341
44.8040	3820.8407
44.8060	3878.2603
44.8080	4144.5076
44.8100	4260.1752
44.8120	4604.6303
44.8140	4573.0113
44.8160	4596.9884
44.8180	4721.7894
44.8200	4767.0535
44.8220	4786.3526
44.8240	4910.5933
44.8260	4894.9167
44.8280	4936.1447
44.8300	5105.9603
44.8320	5097.9466
44.8340	4963.6630
44.8360	4843.3784
44.8380	4778.1322
44.8400	4685.9857
44.8420	4706.2383
44.8440	4482.0468
44.8460	4395.3675
44.8480	4134.7746
44.8500	3973.8215
44.8520	3902.2168
44.8540	3811.8543
44.8560	3631.5191
44.8580	3570.7659
44.8600	3389.3535
44.8620	3104.0989
44.8640	3014.3356
44.8660	2891.4409
44.8680	2912.8724
44.8700	2882.4959
44.8720	2842.6355
44.8740	2684.6850
44.8760	2750.8640
44.8780	2778.5062
44.8800	2795.2381
44.8820	2812.0729
44.8840	3101.6967
44.8860	3133.1726
44.8880	3368.5224
44.8900	3403.7877
44.8920	3463.1331
44.8940	3712.7725
44.8960	3835.9980
44.8980	4145.5629
44.9000	4389.5300
44.9020	4473.3703
44.9040	4762.3551
44.9060	4950.3488
44.9080	5218.3360
44.9100	5403.8889
44.9120	5645.0791
44.9140	5661.0036
44.9160	5963.3219
44.9180	6289.1829
44.9200	6169.0007
44.9220	6364.1596
44.9240	6646.9318
44.9260	6546.3396
44.9280	6673.9326
44.9300	6533.0664
44.9320	6541.5332
44.9340	6365.3210
44.9360	6288.3540
44.9380	6133.1156
44.9400	6038.5478
44.9420	5872.2936
44.9440	5894.9883
44.9460	5590.8067
44.9480	5406.4959
44.9500	5092.3141
44.9520	4957.9068
44.9540	4576.0762
44.9560	4470.5965
44.9580	4288.9553
44.9600	4250.2149
44.9620	4097.1500
44.9640	3744.1010
44.9660	3629.1391
44.9680	3421.5110
44.9700	3356.3061
44.9720	3449.3009
44.9740	3391.4459
44.9760	3441.2665
44.9780	3458.9278
44.9800	3413.2715
44.9820	3486.8414
44.9840	3710.8883
44.9860	3857.2643
44.9880	4116.7815
44.9900	4470.2246
44.9920	4637.0773
44.9940	4681.3068
44.9960	4921.5687
44.9980	5208.3551
45.0000	5482.7191
45.0020	5958.9522
45.0040	6329.4772
45.0060	6583.6734
45.0080	6783.5541
45.0100	6949.3753
45.0120	7376.9449
45.0140	7483.8768
45.0160	7932.3407
45.0180	8216.8928
45.0200	8336.2048
45.0220	8491.4006
45.0240	8508.6906
45.0260	8399.2985
45.0280	8453.2804
45.0300	8500.5729
45.0320	8420.7714
45.0340	8501.6091
45.0360	8405.1996
45.0380	8107.9528
45.0400	7797.4582
45.0420	7587.7600
45.0440	7523.6739
45.0460	7221.4173
45.0480	6877.6027
45.0500	6712.4673
45.0520	6289.4308
45.0540	6018.1093
45.0560	5625.5527
45.0580	5183.6930
45.0600	5085.1489
45.0620	4703.3593
45.0640	4702.5523
45.0660	4572.5968
45.0680	4434.8767
45.0700	4121.0871
45.0720	4070.2528
45.0740	4136.1414
45.0760	4055.2815
45.0780	4177.6583
45.0800	4428.6657
45.0820	4431.1493
45.0840	4743.3036
45.0860	4850.7505
45.0880	5091.6942
45.0900	5516.6152
45.0920	6023.7236
45.0940	6590.7975
45.0960	6880.6679
45.0980	7332.4290
45.1000	7756.6847
45.1020	7897.6792
45.1040	8712.2392
45.1060	9189.8804
45.1080	9587.7169
45.1100	10183.2842
45.1120	10495.7691
45.1140	10760.2941
45.1160	11070.0270
45.1180	11313.0409
45.1200	11631.6143
45.1220	12033.6331
45.1240	12198.9547
45.1260	12321.6835
45.1280	12175.9499
45.1300	12207.6102
45.1320	12059.9104
45.1340	11888.7494
45.1360	11950.8465
45.1380	11248.7457
45.1400	11288.9580
45.1420	10905.8204
45.1440	10625.9716
45.1460	10323.8803
45.1480	9512.6545
45.1500	8907.3764
45.1520	8711.2641
45.1540	8397.7437
45.1560	7754.6988
45.1580	7554.8162
45.1600	7154.2647
45.1620	6702.6727
45.1640	6240.8518
45.1660	6048.2808
45.1680	5830.2176
45.1700	5761.0161
45.1720	5812.4730
45.1740	5928.4094
45.1760	5863.3279
45.1780	5803.8792
45.1800	6282.2667
45.1820	6424.8314
45.1840	6707.1065
45.1860	7411.5268
45.1880	7903.4977
45.1900	8577.7286
45.1920	9132.2936
45.1940	9571.7332
45.1960	10196.8873
45.1980	10850.5779
45.2000	11780.5378
45.2020	12653.9463
45.2040	13724.3344
45.2060	14335.0794
45.2080	14950.3772
45.2100	15794.4876
45.2120	15885.6176
45.2140	16771.3477
45.2160	17393.9565
45.2180	18017.9308
45.2200	18455.8161
45.2220	18817.8706
45.2240	19072.6657
45.2260	19087.7848
45.2280	19027.6897
45.2300	19109.0084
45.2320	19174.0671
45.2340	19128.4509
45.2360	19020.6501
45.2380	18287.6340
45.2400	17468.4342
45.2420	16967.2713
45.2440	16612.3589
45.2460	16127.3253
45.2480	15598.7650
45.2500	15171.2978
45.2520	14513.7142
45.2540	13455.8265
45.2560	12837.4881
45.2580	12175.3886
45.2600	11537.6879
45.2620	11597.6338
45.2640	11608.5651
45.2660	11077.9769
45.2680	10738.6781
45.2700	10373.8656
45.2720	10421.6170
45.2740	10473.4242
45.2760	10914.5413
45.2780	11781.4481
45.2800	12661.0896
45.2820	13703.3192
45.2840	14030.4026
45.2860	15074.1211
45.2880	15990.0005
45.2900	17570.3377
45.2920	19187.6345
45.2940	20926.0835
45.2960	22400.2987
45.2980	24077.4377
45.3000	25556.9248
45.3020	26802.2732
45.3040	28664.4032
45.3060	30559.9563
45.3080	32623.8383
45.3100	34941.5336
45.3120	36176.8338
45.3140	37080.1832
45.3160	38163.7649
45.3180	39788.6600
45.3200	41276.4388
45.3220	41969.7150
45.3240	43448.8149
45.3260	44204.1537
45.3280	44371.4810
45.3300	44642.9901
45.3320	44004.0201
45.3340	44331.0073
45.3360	44771.5804
45.3380	45392.1515
45.3400	44620.5650
45.3420	44164.2474
45.3440	42811.1278
45.3460	42259.1346
45.3480	41700.3621
45.3500	41636.8761
45.3520	41078.9326
45.3540	41079.9292
45.3560	41109.6592
45.3580	40476.9480
45.3600	40421.9312
45.3620	40609.5768
45.3640	41426.0407
45.3660	42946.2655
45.3680	45036.7493
45.3700	47198.7171
45.3720	49091.7218
45.3740	51859.7744
45.3760	54538.9949
45.3780	59861.0130
45.3800	65506.8211
45.3820	73194.7152
45.3840	79480.3616
45.3860	87455.5981
45.3880	95627.5833
45.3900	104276.5104
45.3920	115186.6481
45.3940	129201.8317
45.3960	143600.1023
45.3980	160460.8815
45.4000	176746.4136
45.4020	193115.1134
45.4040	186644.6831
45.4060	202920.4852
45.4080	234794.6885
45.4100	273377.6944
45.4120	310234.6824
45.4140	358576.2856
45.4160	423191.2634
45.4180	526701.6493
45.4200	712649.5899
45.4220	975110.3969
45.4240	1342671.5273
45.4260	1834619.6980
45.4280	2482755.4772
45.4300	3199056.4765
45.4320	3961086.2605
45.4340	4670097.0722
45.4360	5482624.6642
45.4380	6236193.8327
45.4400	6833623.2331
45.4420	7456698.7851
45.4440	7842662.3776
45.4460	8083929.3319
45.4480	8329620.9547
45.4500	8377583.7044
45.4520	8195149.8100
45.4540	7909069.0351
45.4560	7453830.8976
45.4580	6822717.5558
45.4600	6071754.1797
45.4620	5265499.1837
45.4640	4394039.3777
45.4660	3620846.5581
45.4680	2874768.5693
45.4700	2242649.1616
45.4720	1711360.0608
45.4740	1308605.6534
45.4760	1018394.5932
45.4780	811559.9721
45.4800	639920.8384
45.4820	528885.3662
45.4840	461665.8195
45.4860	396772.2079
45.4880	333335.1576
45.4900	281678.5463
45.4920	237531.0154
45.4940	208132.8991
45.4960	188260.6723
45.4980	168281.2391
45.5000	149927.7817
45.5020	140593.8354
45.5040	125785.0546
45.5060	121550.4149
45.5080	122018.7616
45.5100	121102.7416
45.5120	119439.0207
45.5140	118925.6461
45.5160	121238.9008
45.5180	126905.8363
45.5200	133653.1538
45.5220	140486.2640
45.5240	147872.6945
45.5260	158134.9070
45.5280	171749.9517
45.5300	187580.0543
45.5320	185232.8832
45.5340	186184.6946
45.5360	208348.3973
45.5380	227192.7500
45.5400	234928.3609
45.5420	255277.2730
45.5440	268504.0303
45.5460	298097.0007
45.5480	307579.9642
45.5500	320594.4009
45.5520	337075.9713
45.5540	352371.6211
45.5560	370530.1850
45.5580	385556.2796
45.5600	395737.4459
45.5620	413962.3229
45.5640	422699.1643
45.5660	435055.2847
45.5680	452653.5021
45.5700	459033.6597
45.5720	463449.0127
45.5740	479451.9243
45.5760	487706.9688
45.5780	483647.8123
45.5800	492789.9536
45.5820	497761.5480
45.5840	488890.9355
45.5860	486152.5561
45.5880	489108.3085
45.5900	490476.0575
45.5920	492048.9432
45.5940	488090.7169
45.5960	482083.1763
45.5980	475329.4545
45.6000	461150.3924
45.6020	459797.0507
45.6040	444509.6111
45.6060	426044.8619
45.6080	421028.2693
45.6100	397587.8601
45.6120	392990.7773
45.6140	380124.2822
45.6160	367398.7815
45.6180	344656.3186
45.6200	335260.2531
45.6220	311681.8888
45.6240	296351.6613
45.6260	287811.7662
45.6280	276220.0828
45.6300	257993.2520
45.6320	241423.7968
45.6340	223996.0201
45.6360	215222.4104
45.6380	196376.9920
45.6400	188704.7141
45.6420	175374.8358
45.6440	157417.3431
45.6460	146593.2941
45.6480	135702.8431
45.6500	127768.2235
45.6520	118716.9964
45.6540	115096.8687
45.6560	114137.7452
45.6580	104366.9411
45.6600	94577.5456
45.6620	87852.8160
45.6640	81334.8711
45.6660	76014.6785
45.6680	70730.4106
45.6700	66043.9530
45.6720	62082.1002
45.6740	59813.1284
45.6760	57775.1327
45.6780	56941.3184
45.6800	57223.1149
45.6820	57455.4874
45.6840	59869.8499
45.6860	62916.6991
45.6880	67301.4415
45.6900	72598.8389
45.6920	79354.9143
45.6940	86842.5070
45.6960	100314.0310
45.6980	117452.5658
45.7000	143739.9324
45.7020	180239.7568
45.7040	211520.6741
45.7060	323412.6127
45.7080	487580.8158
45.7100	760821.9366
45.7120	1134876.5491
45.7140	1581555.1540
45.7160	2075433.1965
45.7180	2547389.2043
45.7200	2974304.6637
45.7220	3381329.3246
45.7240	3780014.3127
45.7260	4231926.3702
45.7280	4670684.4175
45.7300	5072969.2644
45.7320	5423285.7293
45.7340	5562956.4595
45.7360	5402562.5425
45.7380	4991865.7099
45.7400	4305255.1772
45.7420	3505605.9219
45.7440	2665094.4806
45.7460	1835553.1351
45.7480	1137075.2259
45.7500	697070.4118
45.7520	418522.1834
45.7540	270132.7690
45.7560	186364.2138
45.7580	131432.3429
45.7600	109406.0723
45.7620	91783.7473
45.7640	74866.1282
45.7660	62937.9203
45.7680	54335.6344
45.7700	46818.7929
45.7720	41045.3788
45.7740	35850.8778
45.7760	31642.4500
45.7780	27755.8287
45.7800	24658.7882
45.7820	21849.3047
45.7840	19906.2531
45.7860	17895.7349
45.7880	16163.5594
45.7900	14414.7354
45.7920	13298.0662
45.7940	12276.7469
45.7960	11574.7930
45.7980	10746.9809
45.8000	10130.1066
45.8020	9533.6302
45.8040	9067.9978
45.8060	8425.5333
45.8080	8415.7590
45.8100	8179.4967
45.8120	7881.4630
45.8140	7542.3517
45.8160	7313.3960
45.8180	7161.3074
45.8200	7290.9715
45.8220	7249.1440
45.8240	7101.7748
45.8260	6939.5795
45.8280	6987.3913
45.8300	6816.9118
45.8320	6879.3234
45.8340	6749.9473
45.8360	6871.8465
45.8380	6679.5044
45.8400	6492.7074
45.8420	6233.3983
45.8440	6139.4515
45.8460	6146.6157
45.8480	6062.5068
45.8500	5912.9407
45.8520	5662.9902
45.8540	5427.8454
45.8560	5091.8376
45.8580	4908.9981
45.8600	4779.8292
45.8620	4674.6606
45.8640	4411.1049
45.8660	4184.8432
45.8680	4009.4364
45.8700	3686.8479
45.8720	3484.5841
45.8740	3226.8273
45.8760	3153.6290
45.8780	2844.8092
45.8800	2602.8105
45.8820	2442.8309
45.8840	2285.7288
45.8860	2179.7517
45.8880	2063.9603
45.8900	2016.5421
45.8920	1811.4420
45.8940	1768.9109
45.8960	1579.7546
45.8980	1559.9388
45.9000	1543.7043
45.9020	1460.5678
45.9040	1523.3913
45.9060	1415.8618
45.9080	1376.4148
45.9100	1444.8926
45.9120	1464.2125
45.9140	1536.6436
45.9160	1596.7342
45.9180	1601.9947
45.9200	1679.7688
45.9220	1783.5710
45.9240	1776.4482
45.9260	1897.7893
45.9280	1882.2587
45.9300	2014.2859
45.9320	2055.8844
45.9340	2060.5236
45.9360	2133.4520
45.9380	2211.7027
45.9400	2218.0802
45.9420	2257.1126
45.9440	2166.0228
45.9460	2324.1207
45.9480	2353.9367
45.9500	2310.2458
45.9520	2366.5264
45.9540	2231.9537
45.9560	2249.5959
45.9580	2159.4180
45.9600	2139.8295
45.9620	2104.9390
45.9640	1966.0591
45.9660	1911.1449
45.9680	1976.2053
45.9700	1792.9513
45.9720	1759.0953
45.9740	1691.9853
45.9760	1564.0394
45.9780	1487.6303
45.9800	1370.5758
45.9820	1300.8570
45.9840	1186.4100
45.9860	1182.1661
45.9880	1090.7457
45.9900	944.3698
45.9920	908.6927
45.9940	883.0987
45.9960	790.7678
45.9980	730.6773
46.0000	673.4227
46.0020	689.6364
46.0040	655.8852
46.0060	615.9823
46.0080	609.4188
46.0100	601.9641
46.0120	620.0829
46.0140	610.7645
46.0160	673.9613
46.0180	634.5157
46.0200	730.2005
46.0220	745.1306
46.0240	755.4008
46.0260	759.0455
46.0280	868.3561
46.0300	846.1587
46.0320	902.5633
46.0340	939.7319
46.0360	997.3170
46.0380	1064.8225
46.0400	1072.7302
46.0420	1144.3348
46.0440	1194.7559
46.0460	1215.8967
46.0480	1146.4258
46.0500	1144.1490
46.0520	1217.4918
46.0540	1215.4615
46.0560	1260.2721
46.0580	1266.8769
46.0600	1188.6882
46.0620	1301.0429
46.0640	1218.3817
46.0660	1245.2802
46.0680	1186.2447
46.0700	1206.1031
46.0720	1062.9781
46.0740	1006.1382
46.0760	1013.0955
46.0780	978.2671
46.0800	908.0095
46.0820	929.7716
46.0840	805.9664
46.0860	700.5279
46.0880	726.8879
46.0900	668.8262
46.0920	554.6905
46.0940	590.9075
46.0960	528.1032
46.0980	499.7143
46.1000	496.9607
46.1020	482.6107
46.1040	418.0268
46.1060	399.1836
46.1080	438.2986
46.1100	370.6499
46.1120	389.0374
46.1140	376.3856
46.1160	420.7804
46.1180	442.6471
46.1200	431.2791
46.1220	451.0330
46.1240	473.6036
46.1260	491.2458
46.1280	531.2094
46.1300	552.5582
46.1320	562.6838
46.1340	640.3339
46.1360	639.2774
46.1380	678.1859
46.1400	684.5014
46.1420	747.8840
46.1440	735.6469
46.1460	743.8882
46.1480	749.0232
46.1500	832.4091
46.1520	798.9057
46.1540	804.6207
46.1560	809.7144
46.1580	769.8129
46.1600	911.1984
46.1620	841.2094
46.1640	864.6286
46.1660	796.4622
46.1680	814.2076
46.1700	803.1303
46.1720	778.7579
46.1740	772.5045
46.1760	699.1201
46.1780	699.7828
46.1800	697.1945
46.1820	641.8657
46.1840	602.3373
46.1860	610.9505
46.1880	505.9473
46.1900	484.8064
46.1920	478.8834
46.1940	460.3720
46.1960	427.0752
46.1980	376.2617
46.2000	385.3306
46.2020	348.6592
46.2040	371.2712
46.2060	325.3228
46.2080	318.9452
46.2100	320.0637
46.2120	324.0803
46.2140	295.6500
46.2160	296.7892
46.2180	301.2617
46.2200	320.2083
46.2220	318.3446
46.2240	321.3268
46.2260	334.7444
46.2280	358.1636
46.2300	300.5372
46.2320	376.9862
46.2340	391.6462
46.2360	441.9846
46.2380	473.2097
46.2400	419.2073
46.2420	447.1197
46.2440	488.1190
46.2460	519.7587
46.2480	505.3054
46.2500	570.3038
46.2520	512.1388
46.2540	555.1671
46.2560	526.6955
46.2580	557.6107
46.2600	568.4814
46.2620	539.9892
46.2640	580.9885
46.2660	548.9342
46.2680	504.3948
46.2700	483.3145
46.2720	511.5589
46.2740	512.2214
46.2760	479.8158
46.2780	514.2297
46.2800	443.3717
46.2820	469.2757
46.2840	394.0691
46.2860	431.9417
46.2880	401.0678
46.2900	368.1651
46.2920	352.4898
46.2940	361.2077
46.2960	329.1121
46.2980	338.5130
46.3000	289.2725
46.3020	282.8537
46.3040	290.5769
46.3060	265.9360
46.3080	247.5279
46.3100	231.1901
46.3120	218.5385
46.3140	230.4863
46.3160	285.4625
46.3180	235.0002
46.3200	256.9909
46.3220	260.2210
46.3240	252.6217
46.3260	251.3378
46.3280	282.1497
46.3300	277.3865
46.3320	291.1155
46.3340	274.0738
46.3360	321.5127
46.3380	339.0103
46.3400	346.7542
46.3420	330.4371
46.3440	311.3253
46.3460	349.1565
46.3480	355.0160
46.3500	340.9359
46.3520	376.3443
46.3540	352.4692
46.3560	438.3399
46.3580	436.3315
46.3600	379.5537
46.3620	379.5331
46.3640	372.7616
46.3660	398.4383
46.3680	407.9633
46.3700	406.1617
46.3720	361.2697
46.3740	363.7339
46.3760	366.9433
46.3780	367.5852
46.3800	363.7959
46.3820	323.2318
46.3840	325.9646
46.3860	293.6623
46.3880	293.0619
46.3900	302.5454
46.3920	266.5159
46.3940	291.7780
46.3960	270.3465
46.3980	271.5476
46.4000	252.0418
46.4020	240.6325
46.4040	232.9505
46.4060	250.1368
46.4080	208.5162
46.4100	176.0899
46.4120	215.3909
46.4140	222.9283
46.4160	209.7173
46.4180	197.6868
46.4200	218.5177
46.4220	184.4138
46.4240	219.7601
46.4260	202.1594
46.4280	234.7728
46.4300	233.0744
46.4320	225.4752
46.4340	224.8540
46.4360	228.0634
46.4380	250.6546
46.4400	284.8206
46.4420	260.2623
46.4440	254.3614
46.4460	260.3449
46.4480	273.4113
46.4500	258.3780
46.4520	256.3284
46.4540	279.1056
46.4560	314.4727
46.4580	301.9449
46.4600	284.3027
46.4620	320.7056
46.4640	294.3663
46.4660	267.1371
46.4680	284.8413
46.4700	268.3796
46.4720	298.6942
46.4740	266.5159
46.4760	253.2636
46.4780	245.1463
46.4800	257.6534
46.4820	254.5267
46.4840	234.3375
46.4860	259.4964
46.4880	221.7685
46.4900	226.6556
46.4920	206.5699
46.4940	207.1705
46.4960	226.0344
46.4980	178.0983
46.5000	192.6344
46.5020	203.9816
46.5040	174.9096
46.5060	209.7586
46.5080	179.3614
46.5100	154.7824
46.5120	175.4687
46.5140	168.0760
46.5160	157.8678
46.5180	161.0154
46.5200	167.4342
46.5220	153.9959
46.5240	163.6242
46.5260	182.5088
46.5280	164.8047
46.5300	181.8463
46.5320	170.5196
46.5340	229.2232
46.5360	176.3173
46.5380	156.0042
46.5400	203.8577
46.5420	202.8218
46.5440	203.9610
46.5460	210.9391
46.5480	234.3582
46.5500	181.2664
46.5520	187.5819
46.5540	217.8345
46.5560	222.3071
46.5580	226.0757
46.5600	236.8432
46.5620	221.6446
46.5640	198.3493
46.5660	230.5276
46.5680	198.9912
46.5700	237.4644
46.5720	207.0672
46.5740	229.9270
46.5760	235.4354
46.5780	202.2627
46.5800	215.2876
46.5820	220.4228
46.5840	253.2636
46.5860	216.0122
46.5880	215.3496
46.5900	185.0557
46.5920	186.3188
46.5940	164.8873
46.5960	162.1752
46.5980	143.4352
46.6000	158.5097
46.6020	173.1284
46.6040	165.3639
46.6060	148.4256
46.6080	164.9286
46.6100	165.3846
46.6120	162.9823
46.6140	159.7728
46.6160	149.0468
46.6180	157.8885
46.6200	166.1091
46.6220	135.1733
46.6240	129.4377
46.6260	145.2988
46.6280	161.0154
46.6300	146.4793
46.6320	145.8787
46.6340	138.3827
46.6360	157.2053
46.6380	139.5838
46.6400	151.6143
46.6420	162.8997
46.6440	173.6670
46.6460	153.4573
46.6480	188.1411
46.6500	173.7498
46.6520	142.7933
46.6540	150.2686
46.6560	142.1100
46.6580	167.3722
46.6600	139.5838
46.6620	155.2797
46.6640	157.3087
46.6660	157.2879
46.6680	174.3090
46.6700	144.0151
46.6720	161.5745
46.6740	188.2239
46.6760	166.1297
46.6780	171.1615
46.6800	174.9302
46.6820	193.8148
46.6840	192.6550
46.6860	167.4342
46.6880	141.4889
46.6900	155.2797
46.6920	185.0763
46.6940	150.9518
46.6960	133.9102
46.6980	136.3744
46.7000	159.1517
46.7020	126.9320
46.7040	146.5826
46.7060	97.9013
46.7080	132.5644
46.7100	132.0258
46.7120	130.0794
46.7140	126.3108
46.7160	140.2050
46.7180	114.9636
46.7200	132.6057
46.7220	116.8479
46.7240	133.9515
46.7260	134.4487
46.7280	133.8688
46.7300	140.2463
46.7320	130.0794
46.7340	130.1002
46.7360	135.8771
46.7380	134.4074
46.7400	148.5082
46.7420	125.0270
46.7440	124.3438
46.7460	139.5838
46.7480	149.7093
46.7500	141.4268
46.7520	145.9407
46.7540	153.4573
46.7560	142.0687
46.7580	134.5520
46.7600	137.0576
46.7620	154.0579
46.7640	150.9518
46.7660	152.2355
46.7680	139.5838
46.7700	155.9629
46.7720	109.8904
46.7740	137.0369
46.7760	144.6155
46.7780	117.5104
46.7800	140.1430
46.7820	141.5302
46.7840	107.4055
46.7860	128.1746
46.7880	128.1951
46.7900	141.4681
46.7920	137.5962
46.7940	154.1405
46.7960	118.1316
46.7980	102.9330
46.8000	116.2473
46.8020	104.8173
46.8040	94.7951
46.8060	113.6177
46.8080	102.8917
46.8100	140.9090
46.8120	128.1538
46.8140	126.9941
46.8160	127.5739
46.8180	100.3862
46.8200	106.7636
46.8220	125.6483
46.8240	114.3217
46.8260	124.4265
46.8280	116.2267
46.8300	118.0903
46.8320	123.7226
46.8340	109.2898
46.8360	99.8476
46.8380	102.2084
46.8400	111.1743
46.8420	128.1746
46.8440	119.9953
46.8460	114.9636
46.8480	126.9527
46.8500	143.3732
46.8520	118.7115
46.8540	120.6785
46.8560	137.0782
46.8580	106.6603
46.8600	145.9407
46.8620	142.6899
46.8640	124.4265
46.8660	99.8476
46.8680	132.5644
46.8700	155.3416
46.8720	140.9090
46.8740	145.8166
46.8760	141.4681
46.8780	142.7520
46.8800	117.4691
46.8820	123.7020
46.8840	148.4669
46.8860	109.2692
46.8880	118.0697
46.8900	137.7614
46.8920	135.1113
46.8940	124.4058
46.8960	97.3419
46.8980	94.6711
46.9000	135.7945
46.9020	124.4058
46.9040	92.8694
46.9060	121.8176
46.9080	111.8781
46.9100	94.0912
46.9120	127.5326
46.9140	122.5215
46.9160	95.9962
46.9180	126.9733
46.9200	107.9648
46.9220	89.7427
46.9240	119.3328
46.9260	116.1439
46.9280	106.7843
46.9300	113.6384
46.9320	120.6785
46.9340	103.5542
46.9360	109.2072
46.9380	95.4576
46.9400	84.6490
46.9420	87.1132
46.9440	106.0804
46.9460	114.2804
46.9480	116.2886
46.9500	104.1341
46.9520	131.3840
46.9540	86.5333
46.9560	116.8685
46.9580	100.4068
46.9600	103.5336
46.9620	115.5435
46.9640	96.7002
46.9660	99.1849
46.9680	71.9352
46.9700	107.3435
46.9720	110.5736
46.9740	116.2267
46.9760	102.2705
46.9780	104.7967
46.9800	114.9842
46.9820	109.8904
46.9840	74.5441
46.9860	107.3642
46.9880	107.9648
46.9900	114.9842
46.9920	104.7760
46.9940	128.2572
46.9960	82.7232
46.9980	100.4275
47.0000	92.1862
47.0020	109.9317
47.0040	86.4920
47.0060	106.1011
47.0080	119.2708
47.0100	105.6245
47.0120	97.2386
47.0140	113.6177
47.0160	90.3019
47.0180	95.4163
47.0200	99.7856
47.0220	101.0487
47.0240	109.8491
47.0260	92.8694
47.0280	95.3750
47.0300	95.9962
47.0320	78.9133
47.0340	111.1535
47.0360	103.5749
47.0380	81.5014
47.0400	113.6590
47.0420	120.5752
47.0440	115.6261
47.0460	99.1023
47.0480	101.7319
47.0500	89.6807
47.0520	121.2791
47.0540	89.0182
47.0560	85.2702
47.0580	115.5435
47.0600	101.7319
47.0620	98.5225
47.0640	102.8917
47.0660	82.7853
47.0680	105.4799
47.0700	109.2279
47.0720	90.3226
47.0740	85.2702
47.0760	104.1755
47.0780	118.7322
47.0800	92.8694
47.0820	87.1338
47.0840	108.6066
47.0860	111.1535
47.0880	92.2689
47.0900	70.0716
47.0920	90.9438
47.0940	101.0487
47.0960	100.3862
47.0980	97.9633
47.1000	85.1668
47.1020	106.1424
47.1040	104.1961
47.1060	94.0706
47.1080	94.1325
47.1100	82.1228
47.1120	97.2801
47.1140	75.0826
47.1160	51.8908
47.1180	87.7137
47.1200	95.3543
47.1220	83.3859
47.1240	91.5650
47.1260	105.5005
47.1280	127.5532
47.1300	81.4808
47.1320	99.1644
47.1340	76.4077
47.1360	99.1849
47.1380	112.3546
47.1400	98.5638
47.1420	89.0595
47.1440	73.2603
47.1460	73.2603
47.1480	78.9133
47.1500	86.5126
47.1520	89.1008
47.1540	76.3664
47.1560	85.9327
47.1580	80.1764
47.1600	78.9339
47.1620	76.4284
47.1640	90.3432
47.1660	52.4294
47.1680	87.7137
47.1700	63.1967
47.1720	72.0179
47.1740	91.5444
47.1760	86.5126
47.1780	101.0487
47.1800	85.2908
47.1820	77.0083
47.1840	88.4176
47.1860	99.8063
47.1880	77.7535
47.1900	67.5246
47.1920	97.8392
47.1940	75.2273
47.1960	97.8805
47.1980	83.9658
47.2000	106.7017
47.2020	98.5225
47.2040	85.9740
47.2060	85.2289
47.2080	82.1020
47.2100	85.8706
47.2120	94.0706
47.2140	108.0474
47.2160	83.3444
47.2180	89.6807
47.2200	84.6490
47.2220	87.7344
47.2240	95.3956
47.2260	67.5867
47.2280	73.3016
47.2300	64.3565
47.2320	77.0909
47.2340	72.6391
47.2360	66.9240
47.2380	91.5444
47.2400	70.7548
47.2420	69.4710
47.2440	89.0595
47.2460	85.8914
47.2480	58.1443
47.2500	81.4395
47.2520	74.4821
47.2540	84.6903
47.2560	83.9450
47.2580	78.9546
47.2600	73.2603
47.2620	96.6381
47.2640	71.9972
47.2660	66.9447
47.2680	86.4920
47.2700	101.7319
47.2720	75.7658
47.2740	63.1554
47.2760	68.2286
47.2780	71.3347
47.2800	86.5126
47.2820	84.0484
47.2840	87.7757
47.2860	78.8513
47.2880	76.4697
47.2900	94.0499
47.2920	90.3846
47.2940	92.8488
47.2960	84.6075
47.2980	78.3127
47.3000	103.5749
47.3020	75.7658
47.3040	97.3006
47.3060	76.4077
47.3080	89.6394
47.3100	77.7121
47.3120	84.6283
47.3140	82.1020
47.3160	85.8501
47.3180	74.6060
47.3200	89.0182
47.3220	87.0719
47.3240	87.2371
47.3260	79.5965
47.3280	81.4395
47.3300	77.0289
47.3320	70.7341
47.3340	73.3016
47.3360	66.2615
47.3380	102.3325
47.3400	82.1020
47.3420	74.5234
47.3440	83.9658
47.3460	100.4688
47.3480	75.7658
47.3500	70.1542
47.3520	75.7658
47.3540	58.7449
47.3560	85.1874
47.3580	70.1335
47.3600	96.6587
47.3620	87.1338
47.3640	60.0286
47.3660	85.8501
47.3680	65.7023
47.3700	59.3661
47.3720	85.2495
47.3740	65.6609
47.3760	87.1958
47.3780	61.2504
47.3800	59.3661
47.3820	73.2190
47.3840	91.0058
47.3860	60.5466
47.3880	83.4272
47.3900	80.8597
47.3920	63.7146
47.3940	80.8597
47.3960	73.9228
47.3980	89.7014
47.4000	79.5138
47.4020	75.7865
47.4040	87.1545
47.4060	89.7220
47.4080	70.6720
47.4100	59.4281
47.4120	92.8075
47.4140	78.9546
47.4160	65.1017
47.4180	81.4601
47.4200	85.2495
47.4220	61.8923
47.4240	73.2396
47.4260	60.6499
47.4280	57.4611
47.4300	42.3038
47.4320	92.1656
47.4340	80.8389
47.4360	74.5441
47.4380	82.0607
47.4400	74.6060
47.4420	64.9777
47.4440	101.0900
47.4460	75.8278
47.4480	37.2721
47.4500	71.2932
47.4520	92.2276
47.4540	77.0496
47.4560	53.0298
47.4580	75.2066
47.4600	66.9240
47.4620	58.7036
47.4640	72.0385
47.4660	65.0810
47.4680	65.6403
47.4700	66.9655
47.4720	56.2187
47.4740	66.9034
47.4760	60.6292
47.4780	61.2917
47.4800	68.8498
47.4820	71.3347
47.4840	68.2079
47.4860	77.0496
47.4880	82.7440
47.4900	61.2711
47.4920	85.8501
47.4940	68.2492
47.4960	83.9863
47.4980	67.5039
47.5000	90.3432
47.5020	85.9327
47.5040	74.5027
47.5060	75.1446
47.5080	73.9642
47.5100	59.9667
47.5120	80.1764
47.5140	69.4917
47.5160	75.1446
47.5180	101.0487
47.5200	64.4392
47.5220	61.8923
47.5240	78.9133
47.5260	65.6816
47.5280	81.4808
47.5300	60.0493
47.5320	61.8303
47.5340	89.6600
47.5360	82.7440
47.5380	70.1335
47.5400	57.4405
47.5420	57.4818
47.5440	73.3016
47.5460	65.0397
47.5480	73.2396
47.5500	55.5561
47.5520	72.6597
47.5540	55.5768
47.5560	65.0397
47.5580	70.7134
47.5600	65.7023
47.5620	68.8498
47.5640	74.5027
47.5660	63.7766
47.5680	45.5132
47.5700	59.3661
47.5720	54.3137
47.5740	57.4818
47.5760	58.1030
47.5780	64.3978
47.5800	60.0080
47.5820	62.5135
47.5840	68.1871
47.5860	58.7655
47.5880	77.6502
47.5900	79.5551
47.5920	72.0385
47.5940	52.4294
47.5960	61.8923
47.5980	63.7766
47.6000	59.9873
47.6020	80.1970
47.6040	45.4926
47.6060	71.9765
47.6080	61.3124
47.6100	73.8609
47.6120	60.6292
47.6140	70.6720
47.6160	72.7011
47.6180	59.3661
47.6200	68.8498
47.6220	60.6292
47.6240	57.4198
47.6260	78.9752
47.6280	49.9031
47.6300	79.5345
47.6320	57.4818
47.6340	58.1237
47.6360	63.8386
47.6380	63.7560
47.6400	68.7464
47.6420	74.6060
47.6440	57.4611
47.6460	53.0713
47.6480	49.9031
47.6500	52.3880
47.6520	50.5450
47.6540	58.1030
47.6560	71.3553
47.6580	67.5659
47.6600	63.1347
47.6620	51.2283
47.6640	46.0931
47.6660	53.6304
47.6680	62.5342
47.6700	35.3670
47.6720	76.4284
47.6740	49.9031
47.6760	61.2711
47.6780	56.7986
47.6800	54.9556
47.6820	54.3344
47.6840	50.4830
47.6860	58.1443
47.6880	53.0092
47.6900	65.1017
47.6920	51.1455
47.6940	37.2307
47.6960	48.6606
47.6980	41.6826
47.7000	69.4089
47.7020	63.8386
47.7040	52.4086
47.7060	52.4499
47.7080	67.5453
47.7100	53.0506
47.7120	51.8082
47.7140	47.9361
47.7160	65.7437
47.7180	43.5669
47.7200	65.7023
47.7220	45.4306
47.7240	60.6292
47.7260	74.5234
47.7280	54.9762
47.7300	59.9460
47.7320	61.2711
47.7340	58.1237
47.7360	59.3661
47.7380	65.0191
47.7400	43.0283
47.7420	41.6619
47.7440	58.7242
47.7460	53.6925
47.7480	71.3553
47.7500	61.2504
47.7520	51.1662
47.7540	56.8399
47.7560	45.4306
47.7580	61.8923
47.7600	46.1344
47.7620	44.8507
47.7640	65.0191
47.7660	58.7449
47.7680	52.4294
47.7700	42.3038
47.7720	40.4608
47.7740	48.6193
47.7760	37.2513
47.7780	53.6925
47.7800	61.2711
47.7820	61.2298
47.7840	51.1455
47.7860	46.7557
47.7880	61.2504
47.7900	54.2929
47.7920	42.3451
47.7940	54.9556
47.7960	55.5561
47.7980	50.5243
47.8000	57.4611
47.8020	68.2079
47.8040	54.9556
47.8060	53.0506
47.8080	34.7458
47.8100	57.4405
47.8120	49.2612
47.8140	64.4185
47.8160	50.5036
47.8180	53.0919
47.8200	46.7557
47.8220	46.7557
47.8240	37.8519
47.8260	60.6292
47.8280	60.6499
47.8300	41.0201
47.8320	66.9860
47.8340	43.5463
47.8360	53.0506
47.8380	44.8300
47.8400	41.6413
47.8420	58.1443
47.8440	52.4294
47.8460	37.2926
47.8480	49.2612
47.8500	37.8725
47.8520	34.1039
47.8540	51.1455
47.8560	42.9664
47.8580	43.5669
47.8600	61.8923
47.8620	63.7973
47.8640	52.4294
47.8660	58.0410
47.8680	56.9019
47.8700	34.7045
47.8720	49.2405
47.8740	52.4294
47.8760	40.4195
47.8780	64.4598
47.8800	55.5355
47.8820	65.0397
47.8840	58.1030
47.8860	55.5975
47.8880	56.8606
47.8900	48.6193
47.8920	46.7143
47.8940	56.2187
47.8960	36.6714
47.8980	37.8519
47.9000	57.4611
47.9020	52.4086
47.9040	56.2187
47.9060	48.5987
47.9080	53.0919
47.9100	71.3760
47.9120	51.1662
47.9140	44.1881
47.9160	51.8082
47.9180	32.8408
47.9200	56.7986
47.9220	67.6072
47.9240	38.5144
47.9260	53.6925
47.9280	43.5876
47.9300	50.5243
47.9320	58.7449
47.9340	46.6730
47.9360	57.4818
47.9380	56.9019
47.9400	58.6622
47.9420	40.4608
47.9440	41.6826
47.9460	51.1249
47.9480	45.4719
47.9500	48.6400
47.9520	48.0188
47.9540	36.6094
47.9560	41.0820
47.9580	38.5144
47.9600	40.4402
47.9620	30.2939
47.9640	48.6193
47.9660	60.0286
47.9680	37.2307
47.9700	43.6082
47.9720	47.3149
47.9740	48.0188
47.9760	49.9031
47.9780	41.0407
47.9800	36.0089
47.9820	50.5243
47.9840	24.0198
47.9860	44.8094
47.9880	53.0298
47.9900	59.3868
47.9920	29.7140
47.9940	27.7677
47.9960	33.4827
47.9980	36.6094
48.0000	73.2190
