#Collected Data-3
#Intensity_unit=cps
42.0000	12.0099
42.0020	22.7360
42.0040	5.0317
42.0060	18.3254
42.0080	18.3254
42.0100	17.6835
42.0120	13.8942
42.0140	13.8735
42.0160	15.7992
42.0180	15.1573
42.0200	18.3254
42.0220	19.5678
42.0240	12.6311
42.0260	20.8516
42.0280	18.2841
42.0300	16.4411
42.0320	9.4630
42.0340	18.9466
42.0360	18.3254
42.0380	15.7579
42.0400	26.5666
42.0420	15.7785
42.0440	11.9686
42.0460	17.7248
42.0480	15.7579
42.0500	17.6835
42.0520	15.7992
42.0540	25.2415
42.0560	8.8831
42.0580	18.9466
42.0600	22.6946
42.0620	27.7884
42.0640	29.6934
42.0660	19.5885
42.0680	8.8625
42.0700	23.9783
42.0720	17.0623
42.0740	15.7992
42.0760	9.4424
42.0780	19.6091
42.0800	26.5253
42.0820	12.6311
42.0840	17.6628
42.0860	20.2097
42.0880	25.9041
42.0900	12.0099
42.0920	16.4204
42.0940	10.1049
42.0960	15.1366
42.0980	18.3254
42.1000	20.2097
42.1020	9.4837
42.1040	18.9259
42.1060	13.8942
42.1080	20.2304
42.1100	10.1049
42.1120	15.7785
42.1140	7.5787
42.1160	14.5154
42.1180	13.9149
42.1200	19.5472
42.1220	25.2829
42.1240	29.0308
42.1260	30.3353
42.1280	13.2317
42.1300	6.3568
42.1320	26.5253
42.1340	20.8309
42.1360	17.0416
42.1380	3.1681
42.1400	13.2523
42.1420	20.8516
42.1440	6.9575
42.1460	15.7785
42.1480	21.4521
42.1500	19.6091
42.1520	20.1890
42.1540	19.5678
42.1560	23.9991
42.1580	17.7042
42.1600	13.2730
42.1620	18.3047
42.1640	19.5678
42.1660	19.5885
42.1680	18.3047
42.1700	17.6835
42.1720	13.2730
42.1740	19.5885
42.1760	27.7677
42.1780	12.6311
42.1800	24.6410
42.1820	18.3047
42.1840	20.2304
42.1860	16.3997
42.1880	18.9466
42.1900	24.6203
42.1920	14.5567
42.1940	5.0524
42.1960	23.3571
42.1980	20.8516
42.2000	25.2209
42.2020	9.4837
42.2040	18.9673
42.2060	9.4837
42.2080	22.0940
42.2100	33.4827
42.2120	25.8628
42.2140	25.9041
42.2160	13.2523
42.2180	16.4204
42.2200	18.3047
42.2220	16.4617
42.2240	34.0832
42.2260	25.9041
42.2280	1.9050
42.2300	15.1366
42.2320	23.9783
42.2340	23.3985
42.2360	11.9892
42.2380	30.9358
42.2400	20.8722
42.2420	20.2097
42.2440	12.6311
42.2460	10.0842
42.2480	20.8309
42.2500	17.0829
42.2520	23.3571
42.2540	15.7785
42.2560	13.9149
42.2580	28.4096
42.2600	38.5144
42.2620	17.7042
42.2640	10.7261
42.2660	17.0623
42.2680	20.8309
42.2700	20.8309
42.2720	15.7992
42.2740	13.8735
42.2760	23.3779
42.2780	12.0099
42.2800	11.3680
42.2820	18.3254
42.2840	17.0416
42.2860	23.3571
42.2880	12.6518
42.2900	18.9466
42.2920	27.1259
42.2940	24.0198
42.2960	18.3254
42.2980	29.0102
42.3000	18.3460
42.3020	17.6835
42.3040	21.4728
42.3060	11.3473
42.3080	22.0940
42.3100	21.5141
42.3120	17.0416
42.3140	31.5777
42.3160	10.7261
42.3180	28.4303
42.3200	18.3047
42.3220	25.2622
42.3240	22.1148
42.3260	30.2939
42.3280	24.6410
42.3300	22.7567
42.3320	23.9578
42.3340	25.8834
42.3360	29.6934
42.3380	15.1780
42.3400	22.7360
42.3420	25.2622
42.3440	15.7992
42.3460	25.9041
42.3480	17.0416
42.3500	23.9991
42.3520	16.4204
42.3540	10.7468
42.3560	13.8529
42.3580	13.2936
42.3600	25.8834
42.3620	15.1780
42.3640	9.4630
42.3660	13.8942
42.3680	13.2730
42.3700	21.4521
42.3720	25.2415
42.3740	23.3985
42.3760	14.5154
42.3780	8.8625
42.3800	20.2097
42.3820	24.6203
42.3840	19.5472
42.3860	25.2622
42.3880	29.6934
42.3900	26.5046
42.3920	17.0829
42.3940	13.9149
42.3960	15.1366
42.3980	25.9041
42.4000	15.7372
42.4020	19.0086
42.4040	3.1474
42.4060	32.8201
42.4080	6.3363
42.4100	23.9783
42.4120	21.4936
42.4140	30.8945
42.4160	32.9028
42.4180	28.3890
42.4200	22.1148
42.4220	18.3047
42.4240	30.9565
42.4260	13.2730
42.4280	28.3890
42.4300	22.1148
42.4320	12.0305
42.4340	17.0416
42.4360	20.8516
42.4380	28.3890
42.4400	27.7884
42.4420	30.3353
42.4440	15.7992
42.4460	10.7261
42.4480	17.6835
42.4500	15.7992
42.4520	21.4521
42.4540	30.3146
42.4560	25.2622
42.4580	18.9466
42.4600	29.6934
42.4620	19.5885
42.4640	22.0940
42.4660	28.4096
42.4680	26.5046
42.4700	37.2721
42.4720	33.5033
42.4740	15.7579
42.4760	23.9991
42.4780	18.3254
42.4800	27.1465
42.4820	29.0722
42.4840	17.0416
42.4860	29.0515
42.4880	27.1465
42.4900	18.9466
42.4920	34.1039
42.4940	30.9565
42.4960	30.9358
42.4980	29.6934
42.5000	21.4728
42.5020	36.6509
42.5040	29.0308
42.5060	23.3779
42.5080	34.0832
42.5100	25.2829
42.5120	21.4728
42.5140	28.4303
42.5160	27.1259
42.5180	15.1780
42.5200	22.0940
42.5220	30.2733
42.5240	22.7980
42.5260	27.1465
42.5280	20.8309
42.5300	15.7992
42.5320	34.7458
42.5340	29.6314
42.5360	36.0295
42.5380	18.3254
42.5400	16.3997
42.5420	37.8725
42.5440	41.7033
42.5460	42.9664
42.5480	32.8201
42.5500	29.6934
42.5520	37.2721
42.5540	39.1564
42.5560	20.2097
42.5580	27.7884
42.5600	24.6410
42.5620	33.4000
42.5640	35.4291
42.5660	30.3146
42.5680	38.4731
42.5700	35.4083
42.5720	30.9565
42.5740	23.9991
42.5760	19.5472
42.5780	39.1771
42.5800	15.7992
42.5820	27.1259
42.5840	34.1246
42.5860	36.6301
42.5880	23.9991
42.5900	32.2196
42.5920	26.5253
42.5940	19.5885
42.5960	17.6835
42.5980	25.8834
42.6000	27.7884
42.6020	6.2948
42.6040	35.3877
42.6060	14.4948
42.6080	16.4204
42.6100	21.4936
42.6120	25.9041
42.6140	23.9991
42.6160	33.4620
42.6180	26.5253
42.6200	24.6203
42.6220	34.1039
42.6240	30.3353
42.6260	37.8933
42.6280	17.0416
42.6300	17.0623
42.6320	25.8834
42.6340	24.6203
42.6360	30.9565
42.6380	32.8615
42.6400	20.1684
42.6420	40.4402
42.6440	23.9991
42.6460	25.2622
42.6480	39.1564
42.6500	23.9991
42.6520	46.7143
42.6540	29.6727
42.6560	19.6298
42.6580	42.2625
42.6600	33.5033
42.6620	30.3146
42.6640	41.6619
42.6660	37.9140
42.6680	30.9358
42.6700	32.2402
42.6720	27.7471
42.6740	44.2295
42.6760	35.3463
42.6780	22.1148
42.6800	25.2622
42.6820	22.1353
42.6840	23.9783
42.6860	40.4195
42.6880	35.9882
42.6900	23.3779
42.6920	23.9783
42.6940	29.7140
42.6960	21.4728
42.6980	27.7884
42.7000	34.1039
42.7020	37.8312
42.7040	25.9247
42.7060	40.3988
42.7080	32.2609
42.7100	46.7143
42.7120	27.1465
42.7140	35.3670
42.7160	43.5669
42.7180	24.6823
42.7200	37.2100
42.7220	39.1771
42.7240	39.7983
42.7260	35.3463
42.7280	39.8189
42.7300	49.9031
42.7320	34.0832
42.7340	40.4195
42.7360	42.2832
42.7380	29.0722
42.7400	33.4620
42.7420	50.5243
42.7440	46.1138
42.7460	39.7983
42.7480	37.2307
42.7500	48.6193
42.7520	32.2609
42.7540	24.6203
42.7560	23.9783
42.7580	37.2926
42.7600	30.2939
42.7620	37.8933
42.7640	24.0198
42.7660	34.7251
42.7680	29.0515
42.7700	37.2513
42.7720	34.0626
42.7740	35.4083
42.7760	32.1783
42.7780	41.0820
42.7800	34.7251
42.7820	50.5036
42.7840	40.4608
42.7860	20.8103
42.7880	42.3451
42.7900	36.6094
42.7920	49.2819
42.7940	32.8615
42.7960	30.9152
42.7980	25.2829
42.8000	40.9994
42.8020	39.1356
42.8040	52.4914
42.8060	44.7887
42.8080	42.3245
42.8100	29.0515
42.8120	41.7033
42.8140	42.9457
42.8160	44.2088
42.8180	35.9882
42.8200	61.8923
42.8220	44.8713
42.8240	20.1890
42.8260	30.9771
42.8280	21.4728
42.8300	29.6521
42.8320	42.3451
42.8340	36.5888
42.8360	50.5450
42.8380	41.0407
42.8400	44.1881
42.8420	24.6616
42.8440	23.9991
42.8460	42.3038
42.8480	37.8725
42.8500	44.8507
42.8520	30.9565
42.8540	48.6400
42.8560	33.4414
42.8580	27.1465
42.8600	42.3451
42.8620	27.8091
42.8640	35.9676
42.8660	38.5144
42.8680	36.0295
42.8700	27.7884
42.8720	54.2929
42.8740	34.7251
42.8760	47.9981
42.8780	34.7871
42.8800	40.3988
42.8820	29.0515
42.8840	27.1465
42.8860	41.7033
42.8880	39.1564
42.8900	40.3574
42.8920	32.2609
42.8940	36.0089
42.8960	46.0725
42.8980	55.5561
42.9000	32.9028
42.9020	32.1783
42.9040	36.6509
42.9060	31.5570
42.9080	53.6512
42.9100	58.1030
42.9120	42.9457
42.9140	40.4815
42.9160	43.5463
42.9180	43.5876
42.9200	60.6499
42.9220	39.0943
42.9240	50.5243
42.9260	53.6717
42.9280	51.8082
42.9300	50.5656
42.9320	49.8824
42.9340	43.5669
42.9360	49.8411
42.9380	54.3550
42.9400	58.1237
42.9420	37.8725
42.9440	50.4830
42.9460	55.5768
42.9480	61.3124
42.9500	52.4086
42.9520	46.0725
42.9540	41.0820
42.9560	34.7664
42.9580	50.5036
42.9600	37.8933
42.9620	61.2298
42.9640	55.6181
42.9660	41.6826
42.9680	29.6934
42.9700	30.9358
42.9720	69.4297
42.9740	48.6606
42.9760	56.7986
42.9780	56.8192
42.9800	43.5876
42.9820	58.1237
42.9840	42.3451
42.9860	35.9882
42.9880	50.5243
42.9900	53.0713
42.9920	49.2405
42.9940	48.6400
42.9960	47.3975
42.9980	38.5144
43.0000	58.0823
43.0020	65.0191
43.0040	46.1138
43.0060	70.7134
43.0080	54.9762
43.0100	48.6400
43.0120	58.7449
43.0140	50.5036
43.0160	54.9143
43.0180	53.0713
43.0200	66.3441
43.0220	71.3553
43.0240	49.8824
43.0260	42.9457
43.0280	66.2822
43.0300	70.1129
43.0320	78.3127
43.0340	51.8287
43.0360	51.1662
43.0380	46.0931
43.0400	49.2405
43.0420	56.7986
43.0440	57.5231
43.0460	49.2612
43.0480	51.7667
43.0500	67.5659
43.0520	53.6717
43.0540	51.1868
43.0560	56.8812
43.0580	43.5669
43.0600	50.4830
43.0620	68.8498
43.0640	51.1455
43.0660	56.8399
43.0680	65.0604
43.0700	54.9762
43.0720	49.2405
43.0740	57.4611
43.0760	65.0191
43.0780	63.8179
43.0800	68.1458
43.0820	65.0604
43.0840	68.2699
43.0860	63.1347
43.0880	70.6928
43.0900	56.2600
43.0920	80.1970
43.0940	53.0298
43.0960	59.4281
43.0980	63.7560
43.1000	37.9140
43.1020	71.3140
43.1040	78.2714
43.1060	85.3115
43.1080	78.9546
43.1100	69.4297
43.1120	54.3344
43.1140	71.3760
43.1160	81.4601
43.1180	64.4805
43.1200	65.6196
43.1220	55.0176
43.1240	61.2091
43.1260	68.1665
43.1280	65.1017
43.1300	65.0397
43.1320	70.0922
43.1340	45.5132
43.1360	69.4502
43.1380	57.3991
43.1400	61.9749
43.1420	72.5978
43.1440	66.3028
43.1460	53.7338
43.1480	53.0298
43.1500	61.8923
43.1520	78.8926
43.1540	75.8485
43.1560	77.6708
43.1580	66.2822
43.1600	61.2917
43.1620	63.7973
43.1640	65.6609
43.1660	63.7353
43.1680	71.3966
43.1700	53.0919
43.1720	72.5978
43.1740	68.8498
43.1760	92.1449
43.1780	52.4914
43.1800	55.5561
43.1820	88.3969
43.1840	75.7865
43.1860	70.7341
43.1880	75.1240
43.1900	89.0801
43.1920	77.7328
43.1940	76.3664
43.1960	77.0703
43.1980	78.9546
43.2000	77.6708
43.2020	84.6075
43.2040	86.5126
43.2060	81.5014
43.2080	90.9645
43.2100	76.3871
43.2120	67.5867
43.2140	97.9013
43.2160	95.3750
43.2180	80.1764
43.2200	78.3334
43.2220	78.9133
43.2240	80.8802
43.2260	76.4077
43.2280	100.4068
43.2300	68.1665
43.2320	77.7535
43.2340	84.0276
43.2360	91.4617
43.2380	56.9225
43.2400	64.9984
43.2420	83.3859
43.2440	68.8290
43.2460	83.3444
43.2480	90.3432
43.2500	78.3540
43.2520	71.9765
43.2540	91.5444
43.2560	70.7754
43.2580	95.3130
43.2600	87.1545
43.2620	76.4284
43.2640	88.4383
43.2660	82.7027
43.2680	92.8281
43.2700	78.3540
43.2720	96.5968
43.2740	96.6587
43.2760	77.6708
43.2780	96.0170
43.2800	82.7232
43.2820	99.1231
43.2840	91.6063
43.2860	87.7551
43.2880	102.9330
43.2900	79.6378
43.2920	79.5345
43.2940	73.2603
43.2960	94.7331
43.2980	77.0083
43.3000	97.3006
43.3020	88.4176
43.3040	104.2374
43.3060	101.0074
43.3080	108.6066
43.3100	98.5017
43.3120	101.7112
43.3140	86.5746
43.3160	97.2386
43.3180	88.3763
43.3200	68.1871
43.3220	105.5005
43.3240	87.1958
43.3260	97.2386
43.3280	85.2495
43.3300	105.5212
43.3320	93.3667
43.3340	135.2765
43.3360	91.5444
43.3380	90.9025
43.3400	98.5017
43.3420	105.4592
43.3440	114.9842
43.3460	104.2168
43.3480	109.2072
43.3500	106.7843
43.3520	113.0586
43.3540	102.8710
43.3560	118.7322
43.3580	125.7517
43.3600	123.7639
43.3620	102.9330
43.3640	71.4173
43.3660	115.5641
43.3680	88.3556
43.3700	88.4176
43.3720	142.0480
43.3740	132.0258
43.3760	132.6471
43.3780	126.3108
43.3800	135.1526
43.3820	130.7834
43.3840	116.1647
43.3860	111.7747
43.3880	123.7639
43.3900	106.0804
43.3920	102.9743
43.3940	123.2047
43.3960	96.5968
43.3980	106.7223
43.4000	113.0999
43.4020	116.1439
43.4040	107.3642
43.4060	119.9746
43.4080	104.2788
43.4100	113.5971
43.4120	123.2047
43.4140	124.4265
43.4160	138.8799
43.4180	120.6578
43.4200	117.4691
43.4220	123.7846
43.4240	128.2159
43.4260	102.9950
43.4280	120.5339
43.4300	124.4058
43.4320	123.2460
43.4340	116.7238
43.4360	103.0157
43.4380	104.8173
43.4400	153.4573
43.4420	127.6565
43.4440	116.8066
43.4460	111.7747
43.4480	122.4802
43.4500	113.7211
43.4520	114.2804
43.4540	130.7421
43.4560	123.1840
43.4580	125.6689
43.4600	130.7214
43.4620	121.2584
43.4640	149.6267
43.4660	148.4669
43.4680	158.4684
43.4700	137.6788
43.4720	165.5085
43.4740	132.0052
43.4760	142.0893
43.4780	178.0570
43.4800	132.6884
43.4820	142.7312
43.4840	164.1834
43.4860	152.2149
43.4880	143.9736
43.4900	167.3722
43.4920	153.4986
43.4940	141.4268
43.4960	169.8777
43.4980	137.0576
43.5000	131.4253
43.5020	139.5425
43.5040	147.7424
43.5060	167.3722
43.5080	145.2575
43.5100	157.8472
43.5120	138.3413
43.5140	162.2785
43.5160	161.7399
43.5180	181.8050
43.5200	147.8870
43.5220	147.1418
43.5240	157.2260
43.5260	167.3515
43.5280	171.7827
43.5300	176.8144
43.5320	162.3198
43.5340	185.0350
43.5360	137.7201
43.5380	136.3744
43.5400	162.9617
43.5420	154.1199
43.5440	183.1300
43.5460	167.3515
43.5480	206.5286
43.5500	155.3830
43.5520	158.5097
43.5540	162.9617
43.5560	147.7630
43.5580	190.0875
43.5600	184.4551
43.5620	161.5953
43.5640	159.1724
43.5660	198.3493
43.5680	195.7198
43.5700	197.0242
43.5720	200.2543
43.5740	169.8984
43.5760	211.4777
43.5780	207.8950
43.5800	201.3521
43.5820	196.4857
43.5840	186.9400
43.5860	179.3821
43.5880	193.2349
43.5900	188.7830
43.5920	184.3725
43.5940	210.4212
43.5960	186.2981
43.5980	203.3812
43.6000	188.1411
43.6020	174.3297
43.6040	189.4870
43.6060	202.6772
43.6080	220.4848
43.6100	176.7731
43.6120	185.0763
43.6140	182.5501
43.6160	186.9400
43.6180	197.0242
43.6200	182.5295
43.6220	204.0229
43.6240	200.7103
43.6260	218.5798
43.6280	206.5079
43.6300	193.9595
43.6320	224.7300
43.6340	236.2633
43.6360	211.4157
43.6380	225.5991
43.6400	209.6760
43.6420	209.0754
43.6440	219.6982
43.6460	229.3058
43.6480	216.5301
43.6500	245.1256
43.6520	248.8736
43.6540	239.2661
43.6560	221.6446
43.6580	228.0634
43.6600	251.2965
43.6620	233.0744
43.6640	241.2537
43.6660	246.3474
43.6680	258.8546
43.6700	248.2732
43.6720	249.4742
43.6740	252.5391
43.6760	221.7272
43.6780	272.1689
43.6800	264.5902
43.6820	263.9896
43.6840	235.0002
43.6860	257.0116
43.6880	243.7592
43.6900	234.9382
43.6920	212.1609
43.6940	251.4825
43.6960	255.7278
43.6980	219.1183
43.7000	284.9446
43.7020	244.4011
43.7040	229.2232
43.7060	238.7482
43.7080	241.8336
43.7100	238.1269
43.7120	293.6830
43.7140	319.5044
43.7160	283.0396
43.7180	274.0738
43.7200	283.5575
43.7220	272.1069
43.7240	277.9046
43.7260	279.8509
43.7280	265.1907
43.7300	265.7913
43.7320	252.0625
43.7340	282.3564
43.7360	294.9254
43.7380	321.4094
43.7400	326.4826
43.7420	267.7790
43.7440	280.4721
43.7460	310.0621
43.7480	298.1556
43.7500	293.6417
43.7520	278.5463
43.7540	299.2741
43.7560	297.4311
43.7580	297.5550
43.7600	325.1987
43.7620	312.6297
43.7640	349.3424
43.7660	308.7163
43.7680	289.2518
43.7700	281.0313
43.7720	308.9024
43.7740	327.6424
43.7760	329.6713
43.7780	289.4377
43.7800	304.9477
43.7820	323.3764
43.7840	321.5127
43.7860	293.6210
43.7880	284.8000
43.7900	284.8826
43.7920	295.5674
43.7940	320.8708
43.7960	314.4314
43.7980	303.2080
43.8000	280.4101
43.8020	305.0716
43.8040	321.3887
43.8060	346.0504
43.8080	315.0939
43.8100	298.8181
43.8120	317.6821
43.8140	340.3560
43.8160	330.3752
43.8180	339.1342
43.8200	344.7873
43.8220	388.9341
43.8240	372.0164
43.8260	365.0796
43.8280	382.0799
43.8300	388.4575
43.8320	387.0084
43.8340	363.2366
43.8360	404.2360
43.8380	389.5759
43.8400	378.3733
43.8420	401.6685
43.8440	354.2502
43.8460	389.1200
43.8480	390.9011
43.8500	396.5747
43.8520	382.1212
43.8540	379.4917
43.8560	331.5143
43.8580	399.2043
43.8600	395.9948
43.8620	391.4810
43.8640	402.9729
43.8660	404.1533
43.8680	427.0752
43.8700	406.5970
43.8720	401.7511
43.8740	419.8285
43.8760	411.9800
43.8780	426.2267
43.8800	385.9520
43.8820	366.2601
43.8840	370.1114
43.8860	351.0821
43.8880	377.0688
43.8900	368.1857
43.8920	384.5441
43.8940	423.1620
43.8960	409.8683
43.8980	415.6040
43.9000	420.6358
43.9020	406.1617
43.9040	379.4711
43.9060	406.1617
43.9080	419.3313
43.9100	423.0380
43.9120	422.6027
43.9140	416.0805
43.9160	440.2036
43.9180	413.7817
43.9200	467.2262
43.9220	494.5173
43.9240	459.8335
43.9260	442.0466
43.9280	495.7804
43.9300	456.5413
43.9320	527.9586
43.9340	534.3774
43.9360	553.7593
43.9380	477.4756
43.9400	493.2542
43.9420	541.2523
43.9440	538.8707
43.9460	521.4365
43.9480	464.9065
43.9500	481.8862
43.9520	543.0333
43.9540	516.6939
43.9560	503.4003
43.9580	481.8242
43.9600	484.5570
43.9620	471.6367
43.9640	496.4016
43.9660	532.4105
43.9680	485.6135
43.9700	489.5682
43.9720	478.0349
43.9740	517.8124
43.9760	498.3479
43.9780	454.7603
43.9800	489.4028
43.9820	532.3278
43.9840	478.2415
43.9860	538.0015
43.9880	485.7375
43.9900	472.3818
43.9920	504.5188
43.9940	451.0123
43.9960	528.0206
43.9980	502.6758
44.0000	491.3905
44.0020	565.7692
44.0040	567.1149
44.0060	547.6091
44.0080	558.2526
44.0100	571.6495
44.0120	648.3891
44.0140	603.1652
44.0160	590.5341
44.0180	567.9222
44.0200	621.8638
44.0220	665.6168
44.0240	632.2374
44.0260	596.2904
44.0280	628.8626
44.0300	628.0128
44.0320	656.6510
44.0340	630.9950
44.0360	670.0686
44.0380	647.9126
44.0400	615.8583
44.0420	613.1667
44.0440	625.1353
44.0460	705.0004
44.0480	598.6100
44.0500	603.7451
44.0520	610.7025
44.0540	622.6298
44.0560	671.5176
44.0580	633.3972
44.0600	596.2492
44.0620	582.7695
44.0640	569.2679
44.0660	633.9358
44.0680	586.1443
44.0700	609.3774
44.0720	572.8506
44.0740	605.0496
44.0760	637.3518
44.0780	615.0098
44.0800	629.1106
44.0820	626.9163
44.0840	655.0972
44.0860	586.0616
44.0880	616.9768
44.0900	589.9336
44.0920	692.1007
44.0940	707.9826
44.0960	646.5256
44.0980	714.3602
44.1000	725.6867
44.1020	756.0013
44.1040	721.2141
44.1060	664.5396
44.1080	783.7071
44.1100	683.3003
44.1120	808.8866
44.1140	749.0232
44.1160	748.4847
44.1180	794.3918
44.1200	779.2552
44.1220	778.9439
44.1240	731.2777
44.1260	800.7487
44.1280	784.5349
44.1300	809.5491
44.1320	740.6993
44.1340	883.6992
44.1360	852.5155
44.1380	823.5880
44.1400	786.9372
44.1420	836.6956
44.1440	744.7986
44.1460	808.2447
44.1480	820.2546
44.1500	758.6721
44.1520	776.7909
44.1540	757.8443
44.1560	813.4004
44.1580	786.9578
44.1600	752.7093
44.1620	788.4481
44.1640	779.2345
44.1660	756.6845
44.1680	772.3184
44.1700	805.1178
44.1720	762.3789
44.1740	783.1892
44.1760	777.3915
44.1780	795.6756
44.1800	856.5321
44.1820	865.0226
44.1840	848.1463
44.1860	850.2785
44.1880	857.5886
44.1900	873.4085
44.1920	908.1956
44.1940	852.5981
44.1960	880.9043
44.1980	847.5870
44.2000	926.5209
44.2020	907.5330
44.2040	953.6675
44.2060	987.5441
44.2080	981.5591
44.2100	978.2258
44.2120	1002.4727
44.2140	925.1545
44.2160	928.4259
44.2180	974.3951
44.2200	975.0576
44.2220	1011.2112
44.2240	997.1103
44.2260	1015.4565
44.2280	1031.9388
44.2300	971.5782
44.2320	937.2677
44.2340	957.9540
44.2360	954.2474
44.2380	985.2038
44.2400	1013.1988
44.2420	964.8701
44.2440	1043.9694
44.2460	998.3528
44.2480	988.7024
44.2500	953.4402
44.2520	929.0678
44.2540	937.6617
44.2560	900.1402
44.2580	972.3042
44.2600	1009.5541
44.2620	938.4895
44.2640	981.3732
44.2660	986.4876
44.2680	1033.6166
44.2700	1000.5057
44.2720	990.8982
44.2740	1040.9046
44.2760	1010.4453
44.2780	1059.2301
44.2800	1090.5597
44.2820	1047.2822
44.2840	1026.9071
44.2860	1084.8447
44.2880	1134.2920
44.2900	1134.0853
44.2920	1121.0190
44.2940	1146.3432
44.2960	1201.7339
44.2980	1191.2145
44.3000	1217.5744
44.3020	1166.5115
44.3040	1150.7124
44.3060	1197.5300
44.3080	1187.1772
44.3100	1231.5099
44.3120	1172.2678
44.3140	1208.1322
44.3160	1155.1022
44.3180	1189.3302
44.3200	1182.8906
44.3220	1157.5664
44.3240	1178.5008
44.3260	1156.9865
44.3280	1203.1831
44.3300	1172.1438
44.3320	1153.1559
44.3340	1213.8264
44.3360	1226.5402
44.3380	1238.5086
44.3400	1196.0603
44.3420	1165.3104
44.3440	1134.2713
44.3460	1204.9227
44.3480	1224.4906
44.3500	1208.7534
44.3520	1183.5738
44.3540	1273.1925
44.3560	1122.3234
44.3580	1252.4236
44.3600	1278.3483
44.3620	1221.1572
44.3640	1277.0852
44.3660	1243.6231
44.3680	1291.6007
44.3700	1289.9862
44.3720	1321.9152
44.3740	1284.5192
44.3760	1373.8679
44.3780	1355.7712
44.3800	1410.2708
44.3820	1404.0792
44.3840	1370.3486
44.3860	1450.1723
44.3880	1465.6823
44.3900	1438.1005
44.3920	1442.2424
44.3940	1507.5921
44.3960	1459.4287
44.3980	1553.7059
44.4000	1528.4024
44.4020	1497.3013
44.4040	1518.4215
44.4060	1441.7658
44.4080	1483.5724
44.4100	1479.2032
44.4120	1422.2600
44.4140	1472.0391
44.4160	1468.2705
44.4180	1497.6112
44.4200	1466.3448
44.4220	1451.3941
44.4240	1542.8765
44.4260	1430.3979
44.4280	1429.8180
44.4300	1443.2562
44.4320	1399.2761
44.4340	1521.5896
44.4360	1504.9832
44.4380	1440.5234
44.4400	1390.1644
44.4420	1483.8837
44.4440	1423.6884
44.4460	1520.7204
44.4480	1491.2750
44.4500	1475.7251
44.4520	1531.6118
44.4540	1484.0283
44.4560	1568.9252
44.4580	1611.8502
44.4600	1591.1653
44.4620	1572.0520
44.4640	1613.6519
44.4660	1650.0961
44.4680	1673.7218
44.4700	1662.2299
44.4720	1623.1149
44.4740	1703.4152
44.4760	1713.3341
44.4780	1707.5572
44.4800	1775.4331
44.4820	1724.1429
44.4840	1737.2919
44.4860	1840.4108
44.4880	1758.0608
44.4900	1777.3174
44.4920	1771.4578
44.4940	1764.1477
44.4960	1752.2839
44.4980	1811.2767
44.5000	1861.3244
44.5020	1769.5735
44.5040	1772.1617
44.5060	1735.4695
44.5080	1757.7702
44.5100	1655.9970
44.5120	1684.2207
44.5140	1707.8878
44.5160	1713.7281
44.5180	1719.8150
44.5200	1642.1235
44.5220	1729.7132
44.5240	1786.7184
44.5260	1676.0621
44.5280	1675.8335
44.5300	1620.4647
44.5320	1781.6660
44.5340	1734.7450
44.5360	1722.9004
44.5380	1705.1756
44.5400	1702.7527
44.5420	1772.7209
44.5440	1774.1080
44.5460	1847.7209
44.5480	1814.6307
44.5500	1827.6558
44.5520	1857.2458
44.5540	1951.8963
44.5560	2027.6814
44.5580	1874.3701
44.5600	2014.6578
44.5620	2120.6349
44.5640	2024.4734
44.5660	2135.2330
44.5680	2175.9624
44.5700	2041.9902
44.5720	2108.0038
44.5740	2159.8739
44.5760	2044.9517
44.5780	2057.0649
44.5800	2151.4881
44.5820	2159.1081
44.5840	2215.9259
44.5860	2121.6914
44.5880	2133.5139
44.5900	2054.0208
44.5920	2133.9492
44.5940	2128.2549
44.5960	2062.6766
44.5980	2189.1320
44.6000	2106.8854
44.6020	2122.5399
44.6040	2041.7836
44.6060	1995.7525
44.6080	1989.9755
44.6100	1957.9832
44.6120	1975.8541
44.6140	2021.3039
44.6160	1972.8512
44.6180	1940.0104
44.6200	2034.3909
44.6220	2009.5640
44.6240	2100.5905
44.6260	2064.4369
44.6280	2070.2139
44.6300	2097.9816
44.6320	2142.9769
44.6340	2186.2959
44.6360	2128.4202
44.6380	2143.4742
44.6400	2177.5161
44.6420	2085.3712
44.6440	2328.9445
44.6460	2291.2785
44.6480	2381.6218
44.6500	2329.2957
44.6520	2383.2995
44.6540	2468.0724
44.6560	2451.1547
44.6580	2490.2284
44.6600	2498.1390
44.6620	2522.1780
44.6640	2472.9182
44.6660	2582.5180
44.6680	2511.7013
44.6700	2586.7632
44.6720	2565.4970
44.6740	2621.3436
44.6760	2715.2065
44.6780	2508.6778
44.6800	2529.9440
44.6820	2529.7374
44.6840	2519.6931
44.6860	2475.3411
44.6880	2361.4533
44.6900	2423.8429
44.6920	2420.4668
44.6940	2369.3433
44.6960	2395.3507
44.6980	2332.3812
44.7000	2326.1690
44.7020	2290.1600
44.7040	2274.7755
44.7060	2357.4574
44.7080	2280.4904
44.7100	2418.4585
44.7120	2336.0052
44.7140	2309.8932
44.7160	2370.8971
44.7180	2354.5992
44.7200	2463.8271
44.7220	2420.0949
44.7240	2412.5163
44.7260	2374.6023
44.7280	2461.1149
44.7300	2608.3807
44.7320	2561.7490
44.7340	2599.7674
44.7360	2719.9900
44.7380	2768.7955
44.7400	2759.3533
44.7420	2731.2960
44.7440	2778.2586
44.7460	2900.3046
44.7480	2959.7521
44.7500	3126.4423
44.7520	3023.9008
44.7540	3101.0562
44.7560	3034.3168
44.7580	2982.5719
44.7600	3143.7940
44.7620	2977.3116
44.7640	3082.5021
44.7660	3075.6481
44.7680	3040.5084
44.7700	3039.6807
44.7720	2944.2229
44.7740	2873.8607
44.7760	2917.7183
44.7780	2848.7651
44.7800	2920.9898
44.7820	2878.6446
44.7840	2817.3736
44.7860	2652.8787
44.7880	2709.8025
44.7900	2773.3508
44.7920	2667.0844
44.7940	2671.5774
44.7960	2613.2472
44.7980	2652.1349
44.8000	2602.7056
44.8020	2572.8070
44.8040	2572.0205
44.8060	2633.6635
44.8080	2598.7729
44.8100	2692.4085
44.8120	2700.9607
44.8140	2600.6368
44.8160	2728.3140
44.8180	2769.8933
44.8200	2876.6361
44.8220	2957.1639
44.8240	2953.8720
44.8260	3066.4138
44.8280	3099.1707
44.8300	3107.0192
44.8320	3059.2484
44.8340	3246.1264
44.8360	3262.4010
44.8380	3336.1183
44.8400	3424.4945
44.8420	3518.2113
44.8440	3541.0517
44.8460	3641.9971
44.8480	3674.7553
44.8500	3556.0012
44.8520	3664.0707
44.8540	3634.4391
44.8560	3632.9888
44.8580	3495.1034
44.8600	3542.8742
44.8620	3544.9031
44.8640	3571.9038
44.8660	3445.1385
44.8680	3413.8306
44.8700	3462.9046
44.8720	3350.4467
44.8740	3191.6049
44.8760	3270.2908
44.8780	3197.8597
44.8800	3067.3861
44.8820	3129.3197
44.8840	3009.0340
44.8860	2999.0956
44.8880	2932.1083
44.8900	2882.7864
44.8920	2825.5940
44.8940	2785.0506
44.8960	2852.3672
44.8980	2813.7083
44.9000	2913.7843
44.9020	2883.8210
44.9040	2926.7885
44.9060	2912.3134
44.9080	3025.6209
44.9100	3010.7118
44.9120	3199.2468
44.9140	3243.0411
44.9160	3209.8488
44.9180	3352.3722
44.9200	3344.8968
44.9220	3433.5842
44.9240	3661.6891
44.9260	3750.7690
44.9280	3775.6593
44.9300	3945.3291
44.9320	4017.9889
44.9340	4083.6086
44.9360	4006.8495
44.9380	4180.4328
44.9400	4235.7820
44.9420	4287.1343
44.9440	4230.3163
44.9460	4173.7438
44.9480	4317.7187
44.9500	4356.0668
44.9520	4197.1644
44.9540	4147.5713
44.9560	4206.6272
44.9580	4206.3780
44.9600	4206.9374
44.9620	3982.3326
44.9640	3781.7245
44.9660	3808.5828
44.9680	3740.9124
44.9700	3592.9841
44.9720	3613.8562
44.9740	3521.1328
44.9760	3413.3319
44.9780	3317.3150
44.9800	3192.1859
44.9820	3205.7483
44.9840	3128.9053
44.9860	3209.5170
44.9880	3168.7450
44.9900	3163.8178
44.9920	3082.3149
44.9940	3069.0640
44.9960	3062.0019
44.9980	3155.6178
45.0000	3299.2183
45.0020	3454.1467
45.0040	3422.3609
45.0060	3517.5914
45.0080	3661.8544
45.0100	3724.5747
45.0120	3815.9961
45.0140	3992.8301
45.0160	4068.9897
45.0180	4396.7355
45.0200	4206.2334
45.0220	4379.5697
45.0240	4516.1301
45.0260	4730.5072
45.0280	4794.1588
45.0300	4865.0169
45.0320	5035.2044
45.0340	5126.8340
45.0360	5129.1305
45.0380	5036.8409
45.0400	4999.4654
45.0420	5021.7055
45.0440	5181.3117
45.0460	5300.9968
45.0480	5162.0333
45.0500	5056.1194
45.0520	4910.5921
45.0540	4820.5392
45.0560	4813.5600
45.0580	4509.2348
45.0600	4369.7544
45.0620	4313.0385
45.0640	4258.8914
45.0660	4190.1642
45.0680	4062.3630
45.0700	3821.9799
45.0720	3744.7018
45.0740	3611.2267
45.0760	3460.9995
45.0780	3512.9534
45.0800	3494.4808
45.0820	3511.0279
45.0840	3431.2443
45.0860	3325.3704
45.0880	3442.4260
45.0900	3454.6633
45.0920	3632.4930
45.0940	3680.5324
45.0960	3716.9134
45.0980	3941.4984
45.1000	4042.7966
45.1020	4129.2044
45.1040	4363.1493
45.1060	4593.0970
45.1080	4799.2732
45.1100	4926.9311
45.1120	5131.4501
45.1140	5166.4862
45.1160	5333.0087
45.1180	5353.5089
45.1200	5770.9162
45.1220	6047.4926
45.1240	6068.6145
45.1260	6219.1322
45.1280	6193.2681
45.1300	6191.2803
45.1320	6172.8727
45.1340	6318.7099
45.1360	6390.4795
45.1380	6373.6447
45.1400	6405.5338
45.1420	6167.8616
45.1440	6097.6647
45.1460	5896.0448
45.1480	5774.1227
45.1500	5744.5131
45.1520	5875.8350
45.1540	5662.7836
45.1560	5380.1168
45.1580	5300.2918
45.1600	5031.0431
45.1620	4831.0369
45.1640	4658.9439
45.1660	4576.6134
45.1680	4661.5738
45.1700	4551.1665
45.1720	4321.6527
45.1740	4291.8549
45.1760	4093.3403
45.1780	4109.3885
45.1800	4299.4555
45.1820	4425.2276
45.1840	4769.9322
45.1860	4727.8145
45.1880	4860.2136
45.1900	4880.5473
45.1920	5030.1945
45.1940	5291.6992
45.1960	5639.5721
45.1980	6019.5401
45.2000	6377.2477
45.2020	6555.1807
45.2040	6554.1865
45.2060	6943.2239
45.2080	7334.5185
45.2100	7436.3542
45.2120	7964.4377
45.2140	8289.8213
45.2160	8530.7019
45.2180	8449.0778
45.2200	8660.7811
45.2220	8729.0537
45.2240	9086.9253
45.2260	9216.5086
45.2280	9673.5047
45.2300	9705.0411
45.2320	10094.5361
45.2340	9808.8614
45.2360	9114.3406
45.2380	8925.5589
45.2400	9060.8971
45.2420	8833.8078
45.2440	9064.0019
45.2460	9268.2344
45.2480	9024.7012
45.2500	8507.5527
45.2520	8335.6238
45.2540	7911.0338
45.2560	8092.0517
45.2580	7940.9746
45.2600	7930.7883
45.2620	7879.5800
45.2640	7451.5528
45.2660	7214.4807
45.2680	7371.1888
45.2700	7849.4757
45.2720	8974.6752
45.2740	10096.8557
45.2760	10851.1984
45.2780	10562.5868
45.2800	10318.7878
45.2820	9703.7564
45.2840	10052.0863
45.2860	10727.3546
45.2880	12226.3324
45.2900	13855.9481
45.2920	15133.9029
45.2940	16087.7581
45.2960	16323.7892
45.2980	17074.2667
45.3000	19205.9187
45.3020	22494.4940
45.3040	25023.8364
45.3060	26815.1929
45.3080	27240.8530
45.3100	26186.4289
45.3120	27099.2862
45.3140	29690.3630
45.3160	35048.3254
45.3180	40971.7657
45.3200	46018.2733
45.3220	47234.8292
45.3240	46702.6807
45.3260	45171.3197
45.3280	45150.2268
45.3300	47732.3557
45.3320	53833.4847
45.3340	59622.3053
45.3360	63237.3806
45.3380	66518.3341
45.3400	69536.9113
45.3420	73912.7627
45.3440	80297.3855
45.3460	89661.3306
45.3480	97356.3444
45.3500	103262.9449
45.3520	106999.8411
45.3540	109014.4692
45.3560	114145.9159
45.3580	123389.7670
45.3600	138880.9026
45.3620	157930.4709
45.3640	177498.8117
45.3660	195532.4462
45.3680	186616.7171
45.3700	180679.2593
45.3720	189786.6256
45.3740	196745.4446
45.3760	211892.0674
45.3780	221332.1444
45.3800	242879.3516
45.3820	259759.0774
45.3840	280029.2228
45.3860	320997.5693
45.3880	363079.4641
45.3900	411717.9373
45.3920	454311.0950
45.3940	483366.1391
45.3960	474105.6998
45.3980	486542.5013
45.4000	524983.6640
45.4020	603669.4319
45.4040	749535.2742
45.4060	985018.9291
45.4080	1282785.2718
45.4100	1697744.0687
45.4120	2209420.4128
45.4140	2875471.8048
45.4160	3640738.9354
45.4180	4396083.4028
45.4200	5129761.1413
45.4220	5715674.4672
45.4240	6061819.8326
45.4260	6075676.7626
45.4280	5825270.5880
45.4300	5352962.1729
45.4320	4757848.6816
45.4340	4047111.2009
45.4360	3417949.0456
45.4380	2888706.3382
45.4400	2431189.5532
45.4420	2048500.4111
45.4440	1708140.0819
45.4460	1504044.1954
45.4480	1455148.6402
45.4500	1569623.2011
45.4520	1859964.4404
45.4540	2254867.0506
45.4560	2608093.7172
45.4580	2774310.0900
45.4600	2780031.0234
45.4620	2654143.0156
45.4640	2471187.4575
45.4660	2305862.3655
45.4680	2235979.7917
45.4700	2238288.9116
45.4720	2307802.8157
45.4740	2318314.5611
45.4760	2217246.4741
45.4780	2039379.0322
45.4800	1814757.3195
45.4820	1540498.9229
45.4840	1319960.7605
45.4860	1151223.4603
45.4880	1034317.0211
45.4900	917753.7527
45.4920	819197.7513
45.4940	692410.2525
45.4960	546285.5519
45.4980	420322.7444
45.5000	310235.5705
45.5020	234996.6082
45.5040	185058.7914
45.5060	140260.0590
45.5080	119356.1490
45.5100	114546.4989
45.5120	102913.2909
45.5140	101866.2135
45.5160	110899.6683
45.5180	122441.6661
45.5200	131796.1280
45.5220	134308.9932
45.5240	131397.7061
45.5260	126827.8295
45.5280	125831.0594
45.5300	128357.9866
45.5320	132645.7854
45.5340	134740.5026
45.5360	127323.4811
45.5380	116963.5554
45.5400	103397.1107
45.5420	93125.0697
45.5440	84697.8280
45.5460	80497.8003
45.5480	75996.0674
45.5500	69456.2056
45.5520	64352.3154
45.5540	58803.0858
45.5560	55921.8814
45.5580	56646.9944
45.5600	58017.4472
45.5620	57547.5857
45.5640	55537.8965
45.5660	51664.3725
45.5680	48630.8895
45.5700	46866.7811
45.5720	46221.1699
45.5740	45791.3184
45.5760	43962.0267
45.5780	40767.9760
45.5800	36709.6484
45.5820	32514.5129
45.5840	30006.5619
45.5860	26746.6693
45.5880	25724.8960
45.5900	24668.6094
45.5920	23126.4528
45.5940	21488.4726
45.5960	20683.4594
45.5980	20017.3264
45.6000	20741.6919
45.6020	21578.9428
45.6040	22765.4382
45.6060	23931.4549
45.6080	24277.1494
45.6100	24502.0049
45.6120	25211.4968
45.6140	25924.7015
45.6160	27280.0340
45.6180	29225.8894
45.6200	30692.9503
45.6220	31360.6831
45.6240	32499.0965
45.6260	32900.8883
45.6280	33507.2198
45.6300	34711.0262
45.6320	36202.3871
45.6340	37129.2792
45.6360	38294.6298
45.6380	39327.5218
45.6400	40043.2701
45.6420	40122.5696
45.6440	40790.5343
45.6460	41159.4779
45.6480	41013.6062
45.6500	41430.9451
45.6520	41477.9515
45.6540	40795.9766
45.6560	40211.7569
45.6580	39728.3811
45.6600	38881.8691
45.6620	39058.4551
45.6640	38449.6986
45.6660	37401.6714
45.6680	35935.9057
45.6700	34806.6030
45.6720	33923.1772
45.6740	33750.0252
45.6760	33860.3301
45.6780	33944.7339
45.6800	33964.8375
45.6820	34683.5906
45.6840	35754.3364
45.6860	36708.6394
45.6880	38896.3085
45.6900	42318.1751
45.6920	46767.6715
45.6940	51883.2405
45.6960	57456.6715
45.6980	63369.7208
45.7000	70024.0271
45.7020	79372.0254
45.7040	92468.1941
45.7060	109468.2310
45.7080	127759.4804
45.7100	148184.6823
45.7120	170411.0766
45.7140	191634.0202
45.7160	221673.1047
45.7180	270681.1554
45.7200	351309.3470
45.7220	472310.5466
45.7240	682966.8599
45.7260	1208100.8338
45.7280	2670543.5299
45.7300	5740325.9210
45.7320	9729755.0694
45.7340	12256010.8924
45.7360	10768626.3065
45.7380	6738339.3929
45.7400	3570386.3275
45.7420	1802792.8416
45.7440	1003520.2295
45.7460	697549.0509
45.7480	536393.4006
45.7500	448710.5121
45.7520	439001.0378
45.7540	395550.5848
45.7560	362227.0239
45.7580	348876.8372
45.7600	332852.4528
45.7620	349894.4683
45.7640	355021.2672
45.7660	345865.8632
45.7680	355709.1086
45.7700	340941.2012
45.7720	345379.0534
45.7740	346009.8181
45.7760	351942.9537
45.7780	352462.4070
45.7800	347464.2874
45.7820	338763.0498
45.7840	345124.9318
45.7860	345319.8847
45.7880	340906.4657
45.7900	348730.9482
45.7920	338695.7893
45.7940	334505.9406
45.7960	328595.3435
45.7980	323334.7934
45.8000	314722.4471
45.8020	307888.2218
45.8040	305974.4548
45.8060	304395.4707
45.8080	294798.2157
45.8100	281776.5951
45.8120	281062.1297
45.8140	268437.6185
45.8160	263718.0536
45.8180	249745.2927
45.8200	243325.2880
45.8220	227955.1543
45.8240	218367.1357
45.8260	202912.1961
45.8280	204828.0749
45.8300	188814.9006
45.8320	183662.6422
45.8340	172939.5629
45.8360	157225.4690
45.8380	147247.5349
45.8400	141968.6499
45.8420	132648.0156
45.8440	121358.4717
45.8460	117354.4677
45.8480	111861.3773
45.8500	108368.8235
45.8520	99172.9212
45.8540	90136.1606
45.8560	81208.5356
45.8580	74061.1236
45.8600	66437.9737
45.8620	59276.1051
45.8640	52453.1935
45.8660	46026.5624
45.8680	41279.1377
45.8700	36353.9083
45.8720	31825.2282
45.8740	27785.4131
45.8760	23623.4760
45.8780	20630.8813
45.8800	18175.6491
45.8820	15579.8578
45.8840	13703.3550
45.8860	11939.3736
45.8880	10570.7242
45.8900	9370.3149
45.8920	8487.2794
45.8940	7801.3925
45.8960	7714.8579
45.8980	7468.4493
45.9000	7568.1097
45.9020	7674.8115
45.9040	7831.3555
45.9060	8280.8759
45.9080	8629.4525
45.9100	9229.7213
45.9120	9838.7449
45.9140	10656.2048
45.9160	11025.1558
45.9180	11590.7175
45.9200	11845.4929
45.9220	12198.3133
45.9240	12883.1660
45.9260	13371.6398
45.9280	13286.9462
45.9300	13690.8337
45.9320	13774.9389
45.9340	13788.3003
45.9360	13769.2661
45.9380	13709.1771
45.9400	13641.6119
45.9420	13408.2046
45.9440	12900.8692
45.9460	12547.5110
45.9480	12326.6113
45.9500	11588.5428
45.9520	11321.3424
45.9540	10583.2739
45.9560	9926.8924
45.9580	9567.3407
45.9600	8994.4692
45.9620	8403.2722
45.9640	7714.9818
45.9660	7119.9752
45.9680	6523.4149
45.9700	5932.0736
45.9720	5309.7133
45.9740	4914.1335
45.9760	4574.7499
45.9780	4244.7465
45.9800	3721.0965
45.9820	3386.1236
45.9840	3127.1244
45.9860	2843.8779
45.9880	2663.7496
45.9900	2450.4922
45.9920	2420.7368
45.9940	2265.3331
45.9960	2272.4765
45.9980	2237.0888
46.0000	2364.4768
46.0020	2224.2098
46.0040	2379.0129
46.0060	2520.4190
46.0080	2591.5471
46.0100	2668.5128
46.0120	2828.0169
46.0140	2878.8731
46.0160	3120.3953
46.0180	3140.7500
46.0200	3286.5666
46.0220	3541.6731
46.0240	3669.6615
46.0260	3870.5784
46.0280	3908.8232
46.0300	3804.5649
46.0320	4021.5510
46.0340	3907.3738
46.0360	4053.2320
46.0380	4026.0634
46.0400	3927.9983
46.0420	3945.4120
46.0440	3871.9861
46.0460	3875.1750
46.0480	3636.7162
46.0500	3505.2496
46.0520	3425.0734
46.0540	3400.9710
46.0560	3159.7793
46.0580	3108.4270
46.0600	2880.0523
46.0620	2743.8845
46.0640	2601.2785
46.0660	2391.2500
46.0680	2317.2652
46.0700	2073.0707
46.0720	1983.4947
46.0740	1838.3805
46.0760	1752.9878
46.0780	1591.7644
46.0800	1468.3324
46.0820	1451.3735
46.0840	1334.6909
46.0860	1296.8610
46.0880	1279.7559
46.0900	1265.0339
46.0920	1205.1292
46.0940	1160.6727
46.0960	1194.9625
46.0980	1179.0600
46.1000	1237.7635
46.1020	1279.0935
46.1040	1236.5004
46.1060	1321.1080
46.1080	1363.4945
46.1100	1361.7548
46.1120	1456.6752
46.1140	1483.1165
46.1160	1444.3334
46.1180	1567.5588
46.1200	1538.3833
46.1220	1598.6613
46.1240	1685.3584
46.1260	1717.5794
46.1280	1760.2138
46.1300	1760.2344
46.1320	1741.8677
46.1340	1698.0942
46.1360	1737.4985
46.1380	1737.9544
46.1400	1688.7552
46.1420	1720.4569
46.1440	1724.6401
46.1460	1637.9609
46.1480	1554.7211
46.1500	1565.7984
46.1520	1443.1942
46.1540	1481.5021
46.1560	1410.8300
46.1580	1330.0944
46.1600	1247.4332
46.1620	1163.5087
46.1640	1209.8098
46.1660	1138.2466
46.1680	1080.7235
46.1700	950.9140
46.1720	987.4393
46.1740	983.9407
46.1760	865.9124
46.1780	877.7364
46.1800	853.4260
46.1820	775.5485
46.1840	779.8970
46.1860	797.6632
46.1880	701.1284
46.1900	709.2044
46.1920	716.2237
46.1940	701.1284
46.1960	678.1445
46.1980	795.0543
46.2000	737.7792
46.2020	778.5926
46.2040	734.5078
46.2060	772.9603
46.2080	726.9912
46.2100	784.9494
46.2120	801.5765
46.2140	859.4109
46.2160	777.3915
46.2180	838.8693
46.2200	899.0439
46.2220	880.4898
46.2240	942.4442
46.2260	955.9871
46.2280	901.1969
46.2300	900.0784
46.2320	891.7752
46.2340	877.7157
46.2360	960.7076
46.2380	968.8248
46.2400	853.2400
46.2420	874.0296
46.2440	836.2810
46.2460	879.1854
46.2480	853.7579
46.2500	771.7799
46.2520	759.1694
46.2540	826.6735
46.2560	727.6950
46.2580	658.6386
46.2600	707.9826
46.2620	717.4248
46.2640	729.4967
46.2660	664.4983
46.2680	570.8217
46.2700	555.1257
46.2720	621.3667
46.2740	578.5862
46.2760	606.2300
46.2780	510.4197
46.2800	544.4204
46.2820	562.0832
46.2840	545.7041
46.2860	543.7991
46.2880	514.0644
46.2900	521.4778
46.2920	529.3250
46.2940	525.5564
46.2960	505.2226
46.2980	500.8741
46.3000	506.5478
46.3020	552.4756
46.3040	521.7258
46.3060	521.0631
46.3080	514.0231
46.3100	549.9700
46.3120	514.1058
46.3140	601.8815
46.3160	523.7134
46.3180	553.6767
46.3200	577.9650
46.3220	502.0132
46.3240	567.1770
46.3260	569.1646
46.3280	602.9379
46.3300	567.3010
46.3320	541.8735
46.3340	521.6017
46.3360	533.0730
46.3380	533.5290
46.3400	504.7460
46.3420	518.5163
46.3440	524.6873
46.3460	511.6622
46.3480	468.6752
46.3500	481.8862
46.3520	539.1200
46.3540	465.6310
46.3560	471.7606
46.3580	470.0209
46.3600	418.0889
46.3620	409.1232
46.3640	408.0047
46.3660	387.9396
46.3680	355.4100
46.3700	432.4803
46.3720	394.3377
46.3740	442.0879
46.3760	402.2896
46.3780	352.9871
46.3800	398.4590
46.3820	367.0880
46.3840	341.5158
46.3860	399.1629
46.3880	378.9325
46.3900	399.1836
46.3920	399.1422
46.3940	374.5013
46.3960	373.7768
46.3980	345.0558
46.4000	354.1056
46.4020	368.8483
46.4040	407.4041
46.4060	390.3625
46.4080	329.0707
46.4100	370.5673
46.4120	385.9933
46.4140	354.2502
46.4160	342.4057
46.4180	355.4926
46.4200	386.4698
46.4220	337.3119
46.4240	323.3350
46.4260	377.0482
46.4280	368.7656
46.4300	383.3843
46.4320	356.2586
46.4340	326.4826
46.4360	366.2394
46.4380	342.3644
46.4400	381.4380
46.4420	300.6198
46.4440	323.3557
46.4460	342.9443
46.4480	316.3983
46.4500	291.1568
46.4520	338.5337
46.4540	296.1886
46.4560	342.3231
46.4580	294.3250
46.4600	308.7783
46.4620	305.0303
46.4640	356.7557
46.4660	325.2608
46.4680	306.3761
46.4700	300.0399
46.4720	285.5038
46.4740	293.0411
46.4760	302.4215
46.4780	289.3138
46.4800	267.0750
46.4820	274.7984
46.4840	282.9155
46.4860	300.0192
46.4880	269.6427
46.4900	303.7259
46.4920	304.4917
46.4940	291.6747
46.4960	292.4612
46.4980	293.6003
46.5000	288.6926
46.5020	257.7154
46.5040	260.1590
46.5060	269.7666
46.5080	263.3477
46.5100	298.0523
46.5120	281.6319
46.5140	279.8094
46.5160	240.0319
46.5180	289.8317
46.5200	247.5692
46.5220	279.8922
46.5240	247.5279
46.5260	272.7694
46.5280	247.5900
46.5300	267.1371
46.5320	258.9785
46.5340	251.3793
46.5360	219.7601
46.5380	246.9273
46.5400	257.6741
46.5420	238.0443
46.5440	227.4421
46.5460	252.0005
46.5480	241.8749
46.5500	247.5279
46.5520	239.9286
46.5540	219.8635
46.5560	210.3385
46.5580	236.7812
46.5600	229.8857
46.5620	249.4742
46.5640	217.2754
46.5660	219.6775
46.5680	229.9477
46.5700	217.3167
46.5720	207.7917
46.5740	201.4141
46.5760	190.7914
46.5780	241.7923
46.5800	226.7796
46.5820	220.3608
46.5840	192.1164
46.5860	215.9502
46.5880	226.6763
46.5900	238.6862
46.5920	224.8953
46.5940	212.8441
46.5960	214.0865
46.5980	188.2031
46.6000	250.6961
46.6020	211.5190
46.6040	252.0625
46.6060	201.4554
46.6080	181.8876
46.6100	200.2130
46.6120	178.1190
46.6140	215.3083
46.6160	200.8755
46.6180	195.2019
46.6200	206.4873
46.6220	190.7707
46.6240	199.4678
46.6260	187.6440
46.6280	185.0557
46.6300	183.1300
46.6320	183.0887
46.6340	220.4228
46.6360	178.1190
46.6380	183.2127
46.6400	193.8975
46.6420	171.0995
46.6440	191.9925
46.6460	176.2140
46.6480	181.1631
46.6500	176.2760
46.6520	203.9816
46.6540	175.6134
46.6560	193.2556
46.6580	195.1606
46.6600	156.6047
46.6620	188.1824
46.6640	181.2870
46.6660	200.8135
46.6680	195.8438
46.6700	173.6050
46.6720	156.0042
46.6740	160.4148
46.6760	169.2152
46.6780	186.9400
46.6800	205.2861
46.6820	187.0021
46.6840	159.6902
46.6860	180.0446
46.6880	150.9518
46.6900	175.5308
46.6920	165.4879
46.6940	162.9823
46.6960	191.3506
46.6980	171.1202
46.7000	155.3416
46.7020	201.3934
46.7040	183.9578
46.7060	171.7001
46.7080	134.5314
46.7100	157.2673
46.7120	163.4796
46.7140	131.4046
46.7160	190.1702
46.7180	161.6779
46.7200	148.3843
46.7220	159.8141
46.7240	173.6464
46.7260	152.9187
46.7280	144.5122
46.7300	148.4462
46.7320	164.2041
46.7340	135.7738
46.7360	161.7605
46.7380	152.1942
46.7400	129.4169
46.7420	164.2041
46.7440	132.6884
46.7460	134.4281
46.7480	148.4669
46.7500	157.2260
46.7520	149.6887
46.7540	153.5193
46.7560	161.0154
46.7580	123.1427
46.7600	140.2876
46.7620	160.3322
46.7640	163.5416
46.7660	145.3608
46.7680	135.6912
46.7700	150.9724
46.7720	145.3195
46.7740	142.0687
46.7760	130.7421
46.7780	118.1110
46.7800	120.5339
46.7820	147.8250
46.7840	141.4681
46.7860	140.2050
46.7880	142.7105
46.7900	93.4907
46.7920	138.3000
46.7940	160.4148
46.7960	129.5203
46.7980	131.3220
46.8000	96.6795
46.8020	134.4074
46.8040	141.5094
46.8060	129.4790
46.8080	147.8044
46.8100	135.1733
46.8120	114.3422
46.8140	149.6680
46.8160	124.3852
46.8180	131.9639
46.8200	123.2047
46.8220	131.3220
46.8240	121.2584
46.8260	121.2377
46.8280	131.4459
46.8300	121.1964
46.8320	124.4678
46.8340	116.1852
46.8360	110.5529
46.8380	130.7008
46.8400	127.5739
46.8420	109.8284
46.8440	119.4774
46.8460	106.6603
46.8480	143.3524
46.8500	117.5104
46.8520	113.6590
46.8540	147.7837
46.8560	101.0279
46.8580	124.3852
46.8600	135.1733
46.8620	121.2997
46.8640	107.9648
46.8660	126.9733
46.8680	121.2171
46.8700	107.9854
46.8720	114.3009
46.8740	121.2997
46.8760	128.8991
46.8780	133.7862
46.8800	92.9108
46.8820	108.6480
46.8840	83.9658
46.8860	107.3849
46.8880	104.7967
46.8900	107.9441
46.8920	95.4163
46.8940	115.6468
46.8960	107.9028
46.8980	135.2146
46.9000	111.7541
46.9020	104.9000
46.9040	92.8281
46.9060	96.5554
46.9080	105.4592
46.9100	120.0573
46.9120	81.4808
46.9140	92.1656
46.9160	113.0173
46.9180	108.6480
46.9200	98.5638
46.9220	136.9956
46.9240	87.8377
46.9260	114.9429
46.9280	97.8600
46.9300	94.6918
46.9320	130.7421
46.9340	101.7319
46.9360	91.6063
46.9380	94.0912
46.9400	95.9549
46.9420	89.0801
46.9440	92.1862
46.9460	95.3543
46.9480	94.0912
46.9500	99.2057
46.9520	95.3130
46.9540	108.0267
46.9560	106.6603
46.9580	115.0255
46.9600	81.5014
46.9620	64.3978
46.9640	92.1243
46.9660	104.2374
46.9680	116.8685
46.9700	95.3543
46.9720	107.9648
46.9740	104.8793
46.9760	95.3750
46.9780	75.8278
46.9800	89.5981
46.9820	86.5746
46.9840	114.2389
46.9860	70.7754
46.9880	105.4179
46.9900	93.4907
46.9920	98.5845
46.9940	84.6075
46.9960	82.6819
46.9980	90.9645
47.0000	100.4481
47.0020	106.0804
47.0040	104.8793
47.0060	87.7551
47.0080	114.9221
47.0100	73.3429
47.0120	106.0185
47.0140	88.4383
47.0160	108.6480
47.0180	106.7223
47.0200	83.9863
47.0220	105.5005
47.0240	79.5138
47.0260	104.2788
47.0280	88.9975
47.0300	89.0388
47.0320	72.0798
47.0340	88.9149
47.0360	72.0798
47.0380	96.0375
47.0400	76.3457
47.0420	94.7744
47.0440	72.5978
47.0460	108.5860
47.0480	104.2581
47.0500	80.8389
47.0520	89.6807
47.0540	75.1653
47.0560	84.6283
47.0580	99.7856
47.0600	75.8278
47.0620	53.0092
47.0640	50.5450
47.0660	73.8815
47.0680	76.4284
47.0700	89.6600
47.0720	82.1228
47.0740	69.4710
47.0760	86.5539
47.0780	75.0413
47.0800	84.6903
47.0820	90.9438
47.0840	75.8072
47.0860	79.5965
47.0880	76.3871
47.0900	55.5768
47.0920	85.8914
47.0940	75.8072
47.0960	78.8926
47.0980	81.4808
47.1000	67.5659
47.1020	82.7645
47.1040	78.9546
47.1060	81.4188
47.1080	87.7757
47.1100	97.2801
47.1120	88.4383
47.1140	73.9022
47.1160	63.7973
47.1180	51.8287
47.1200	79.4932
47.1220	75.2273
47.1240	82.7027
47.1260	55.5355
47.1280	70.1542
47.1300	66.9860
47.1320	66.2822
47.1340	68.2079
47.1360	70.7134
47.1380	61.2298
47.1400	75.8072
47.1420	68.2492
47.1440	67.5039
47.1460	87.8170
47.1480	56.1774
47.1500	85.9121
47.1520	78.2920
47.1540	87.1958
47.1560	82.0607
47.1580	102.2911
47.1600	75.8691
47.1620	63.1761
47.1640	65.6403
47.1660	61.9130
47.1680	74.4821
47.1700	82.7645
47.1720	63.7353
47.1740	53.0713
47.1760	77.6915
47.1780	71.3760
47.1800	80.2177
47.1820	70.7341
47.1840	61.8923
47.1860	76.3457
47.1880	65.7437
47.1900	75.1653
47.1920	56.1774
47.1940	70.1335
47.1960	58.7242
47.1980	83.9658
47.2000	67.6280
47.2020	59.3868
47.2040	47.9774
47.2060	68.8498
47.2080	63.7766
47.2100	56.8192
47.2120	56.8192
47.2140	59.9873
47.2160	63.1761
47.2180	65.0604
47.2200	62.5342
47.2220	89.5981
47.2240	56.9432
47.2260	55.5768
47.2280	44.1881
47.2300	66.3028
47.2320	57.4405
47.2340	71.4173
47.2360	49.8824
47.2380	71.3760
47.2400	64.3978
47.2420	71.3553
47.2440	59.4074
47.2460	46.0518
47.2480	62.5342
47.2500	61.2917
47.2520	73.2396
47.2540	42.3451
47.2560	49.2405
47.2580	71.3760
47.2600	52.4294
47.2620	58.7036
47.2640	60.6705
47.2660	48.5987
47.2680	59.9873
47.2700	42.9664
47.2720	77.6708
47.2740	62.4929
47.2760	73.9435
47.2780	66.9034
47.2800	55.6181
47.2820	65.6403
47.2840	51.1662
47.2860	53.6925
47.2880	46.1344
47.2900	56.8192
47.2920	57.4611
47.2940	63.7973
47.2960	59.9873
47.2980	56.8192
47.3000	53.0713
47.3020	50.5243
47.3040	53.0506
47.3060	60.6292
47.3080	60.5879
47.3100	79.5965
47.3120	53.0506
47.3140	52.4499
47.3160	59.9667
47.3180	46.1138
47.3200	56.8192
47.3220	64.4598
47.3240	54.2929
47.3260	46.7557
47.3280	54.9349
47.3300	58.1030
47.3320	68.8498
47.3340	52.4086
47.3360	59.3868
47.3380	53.0298
47.3400	47.3769
47.3420	55.5975
47.3440	53.6304
47.3460	56.2187
47.3480	56.1980
47.3500	63.1554
47.3520	66.3235
47.3540	44.8300
47.3560	49.8618
47.3580	55.5975
47.3600	64.4598
47.3620	54.2929
47.3640	47.3975
47.3660	42.3245
47.3680	39.7570
47.3700	59.3454
47.3720	56.8606
47.3740	55.5768
47.3760	37.2721
47.3780	47.9981
47.3800	54.9349
47.3820	48.6193
47.3840	49.9237
47.3860	58.7242
47.3880	48.6400
47.3900	53.0298
47.3920	60.0080
47.3940	50.4830
47.3960	44.8713
47.3980	66.3028
47.4000	60.6292
47.4020	66.3028
47.4040	49.2819
47.4060	59.3661
47.4080	39.1151
47.4100	66.3441
47.4120	36.0295
47.4140	47.9774
47.4160	52.4294
47.4180	51.1042
47.4200	59.4281
47.4220	43.5463
47.4240	55.5355
47.4260	55.6594
47.4280	53.6717
47.4300	38.4939
47.4320	25.9041
47.4340	60.6292
47.4360	51.1662
47.4380	44.8507
47.4400	62.4929
47.4420	49.2612
47.4440	57.4818
47.4460	51.1455
47.4480	53.7131
47.4500	28.4096
47.4520	47.9568
47.4540	44.2501
47.4560	39.1356
47.4580	50.5450
47.4600	73.2603
47.4620	34.0832
47.4640	37.9346
47.4660	47.3356
47.4680	46.1138
47.4700	41.0407
47.4720	15.1986
47.4740	71.3140
47.4760	63.1347
47.4780	31.0185
47.4800	27.1259
47.4820	41.0614
47.4840	41.0614
47.4860	39.7570
47.4880	47.9981
47.4900	29.6727
47.4920	54.9762
47.4940	62.4929
47.4960	33.4827
47.4980	46.7143
47.5000	39.7983
47.5020	35.3877
47.5040	48.0188
47.5060	31.5570
47.5080	41.6413
47.5100	29.7140
47.5120	47.3562
47.5140	43.6082
47.5160	38.5352
47.5180	36.6301
47.5200	37.2513
47.5220	51.7667
47.5240	55.5975
47.5260	44.8300
47.5280	41.6619
47.5300	46.7763
47.5320	24.6410
47.5340	43.5463
47.5360	51.1662
47.5380	51.7874
47.5400	45.4719
47.5420	58.7036
47.5440	34.1452
47.5460	36.6094
47.5480	24.6203
47.5500	24.6410
47.5520	39.7983
47.5540	26.5253
47.5560	44.8094
47.5580	37.8933
47.5600	59.3661
47.5620	43.5669
47.5640	29.0928
47.5660	29.0515
47.5680	51.7461
47.5700	49.9031
47.5720	33.4827
47.5740	29.0515
47.5760	44.8507
47.5780	63.7560
47.5800	43.6082
47.5820	45.4926
47.5840	30.2939
47.5860	49.2612
47.5880	30.3353
47.5900	27.7471
47.5920	25.9041
47.5940	46.0725
47.5960	38.5352
47.5980	41.0614
47.6000	34.7251
47.6020	52.4086
47.6040	53.7131
47.6060	49.2612
47.6080	39.1356
47.6100	34.7664
47.6120	32.2196
47.6140	39.7363
47.6160	39.8396
47.6180	50.5243
47.6200	18.9673
47.6220	42.2832
47.6240	41.0820
47.6260	50.5036
47.6280	33.4620
47.6300	39.7776
47.6320	28.4509
47.6340	49.8411
47.6360	56.2600
47.6380	27.1465
47.6400	32.1989
47.6420	23.3571
47.6440	35.3670
47.6460	44.8300
47.6480	38.5352
47.6500	36.0295
47.6520	44.8300
47.6540	30.9358
47.6560	35.3463
47.6580	41.0820
47.6600	33.4620
47.6620	46.0931
47.6640	36.6509
47.6660	45.4512
47.6680	20.8309
47.6700	39.1771
47.6720	27.7884
47.6740	34.1039
47.6760	23.9991
47.6780	29.0515
47.6800	35.3670
47.6820	37.2721
47.6840	41.0407
47.6860	48.6400
47.6880	45.4719
47.6900	27.1259
47.6920	34.1452
47.6940	37.2307
47.6960	28.4096
47.6980	39.1977
47.7000	42.2832
47.7020	40.4195
47.7040	19.6091
47.7060	47.9774
47.7080	22.7360
47.7100	36.0089
47.7120	46.7143
47.7140	41.0614
47.7160	23.9991
47.7180	32.1989
47.7200	44.2295
47.7220	27.1672
47.7240	41.6619
47.7260	21.4936
47.7280	27.7677
47.7300	34.0832
47.7320	44.2295
47.7340	38.5352
47.7360	23.3779
47.7380	45.4306
47.7400	24.6410
47.7420	37.8933
47.7440	35.3463
47.7460	46.1138
47.7480	37.2926
47.7500	32.2196
47.7520	26.5046
47.7540	34.1039
47.7560	26.5460
47.7580	34.0626
47.7600	38.5558
47.7620	29.6727
47.7640	35.9882
47.7660	39.7983
47.7680	39.1564
47.7700	49.9031
47.7720	27.1672
47.7740	32.8408
47.7760	39.1356
47.7780	42.9664
47.7800	27.7677
47.7820	30.9771
47.7840	34.7251
47.7860	22.7152
47.7880	47.3769
47.7900	40.4195
47.7920	29.0722
47.7940	29.0308
47.7960	29.0515
47.7980	46.7143
47.8000	30.9358
47.8020	35.3877
47.8040	44.8507
47.8060	34.7251
47.8080	30.3353
47.8100	27.7884
47.8120	29.0102
47.8140	45.4926
47.8160	29.0722
47.8180	23.9991
47.8200	35.9882
47.8220	29.6934
47.8240	35.9882
47.8260	26.5253
47.8280	21.4936
47.8300	31.5570
47.8320	28.4303
47.8340	25.8834
47.8360	41.0614
47.8380	23.3571
47.8400	18.9466
47.8420	29.0722
47.8440	28.4096
47.8460	35.9882
47.8480	36.0089
47.8500	26.5253
47.8520	39.1356
47.8540	32.8615
47.8560	32.1989
47.8580	27.8091
47.8600	15.7579
47.8620	27.7884
47.8640	34.1246
47.8660	29.6727
47.8680	23.9783
47.8700	27.1878
47.8720	25.2622
47.8740	18.3047
47.8760	34.1246
47.8780	27.1259
47.8800	29.0515
47.8820	29.0515
47.8840	29.6934
47.8860	38.5144
47.8880	19.6091
47.8900	28.4096
47.8920	29.6314
47.8940	48.6606
47.8960	27.1672
47.8980	30.3146
47.9000	38.5352
47.9020	27.1465
47.9040	40.4195
47.9060	28.3890
47.9080	30.3353
47.9100	30.9565
47.9120	30.9358
47.9140	37.8725
47.9160	33.5033
47.9180	30.9152
47.9200	41.7239
47.9220	26.4840
47.9240	49.2819
47.9260	12.6311
47.9280	23.3571
47.9300	38.5352
47.9320	27.7884
47.9340	30.3146
47.9360	36.6094
47.9380	32.2402
47.9400	25.9041
47.9420	22.0940
47.9440	25.2415
47.9460	17.7042
47.9480	30.9565
47.9500	29.0515
47.9520	35.9882
47.9540	18.2634
47.9560	38.5972
47.9580	22.0734
47.9600	32.8408
47.9620	36.6509
47.9640	18.9466
47.9660	25.2622
47.9680	12.6311
47.9700	29.6521
47.9720	29.7140
47.9740	35.9882
47.9760	30.9358
47.9780	13.8942
47.9800	24.0198
47.9820	20.8103
47.9840	29.0928
47.9860	12.6104
47.9880	21.4521
47.9900	27.8091
47.9920	34.7458
47.9940	20.8309
47.9960	22.7152
47.9980	30.3146
48.0000	29.0722
