#Collected Data-5
#Intensity_unit=cps
15.0000	16.9005
15.0100	0.1682
15.0200	0.0000
15.0300	0.0000
15.0400	0.0000
15.0500	0.0000
15.0600	0.0000
15.0700	0.0000
15.0800	0.0000
15.0900	16.7323
15.1000	16.9005
15.1100	0.1682
15.1200	16.7323
15.1300	8.6184
15.1400	0.0000
15.1500	0.0000
15.1600	16.7323
15.1700	8.4502
15.1800	8.6184
15.1900	0.0000
15.2000	0.0000
15.2100	0.0000
15.2200	0.0000
15.2300	0.0000
15.2400	0.0000
15.2500	0.0000
15.2600	0.0000
15.2700	0.0000
15.2800	0.0000
15.2900	0.0000
15.3000	0.0000
15.3100	0.0000
15.3200	0.0000
15.3300	0.0000
15.3400	0.0000
15.3500	0.0000
15.3600	0.0000
15.3700	0.0000
15.3800	0.0000
15.3900	0.0000
15.4000	0.0000
15.4100	0.0000
15.4200	8.2821
15.4300	8.6184
15.4400	0.0000
15.4500	0.0000
15.4600	0.0000
15.4700	0.0000
15.4800	0.0000
15.4900	0.0000
15.5000	0.0000
15.5100	0.0000
15.5200	0.0000
15.5300	0.0000
15.5400	0.0000
15.5500	8.2821
15.5600	0.1682
15.5700	0.0000
15.5800	0.0000
15.5900	0.0000
15.6000	0.0000
15.6100	0.0000
15.6200	0.0000
15.6300	0.0000
15.6400	0.0000
15.6500	0.0000
15.6600	0.0000
15.6700	0.0000
15.6800	0.0000
15.6900	0.0000
15.7000	0.0000
15.7100	25.0144
15.7200	8.6184
15.7300	16.9005
15.7400	0.1682
15.7500	0.0000
15.7600	0.0000
15.7700	0.0000
15.7800	0.0000
15.7900	0.0000
15.8000	0.0000
15.8100	0.0000
15.8200	0.0000
15.8300	8.2821
15.8400	8.6184
15.8500	0.0000
15.8600	25.0144
15.8700	17.0686
15.8800	0.1682
15.8900	0.0000
15.9000	0.0000
15.9100	0.0000
15.9200	0.0000
15.9300	0.0000
15.9400	0.0000
15.9500	0.0000
15.9600	8.2821
15.9700	8.6184
15.9800	0.0000
15.9900	0.0000
16.0000	0.0000
16.0100	0.0000
16.0200	0.0000
16.0300	0.0000
16.0400	0.0000
16.0500	0.0000
16.0600	0.0000
16.0700	0.0000
16.0800	0.0000
16.0900	0.0000
16.1000	0.0000
16.1100	8.2821
16.1200	16.9005
16.1300	33.6328
16.1400	0.3363
16.1500	8.2821
16.1600	8.6184
16.1700	25.1825
16.1800	25.3507
16.1900	8.6184
16.2000	16.7323
16.2100	8.6184
16.2200	0.0000
16.2300	0.0000
16.2400	8.2821
16.2500	8.6184
16.2600	8.2821
16.2700	25.1825
16.2800	0.3363
16.2900	0.0000
16.3000	0.0000
16.3100	25.1825
16.3200	25.1825
16.3300	0.3363
16.3400	0.0000
16.3500	0.0000
16.3600	0.0000
16.3700	16.7323
16.3800	16.9005
16.3900	0.1682
16.4000	0.0000
16.4100	0.0000
16.4200	16.7323
16.4300	8.6184
16.4400	25.1825
16.4500	0.1682
16.4600	0.0000
16.4700	0.0000
16.4800	16.5641
16.4900	25.3507
16.5000	25.5188
16.5100	0.1682
16.5200	0.0000
16.5300	25.0144
16.5400	25.5188
16.5500	0.1682
16.5600	0.0000
16.5700	0.0000
16.5800	0.0000
16.5900	0.0000
16.6000	0.0000
16.6100	16.5641
16.6200	17.0686
16.6300	0.1682
16.6400	0.0000
16.6500	0.0000
16.6600	0.0000
16.6700	0.0000
16.6800	0.0000
16.6900	16.7323
16.7000	16.9005
16.7100	16.9005
16.7200	8.4502
16.7300	0.1682
16.7400	0.0000
16.7500	8.2821
16.7600	0.1682
16.7700	0.0000
16.7800	0.0000
16.7900	16.7323
16.8000	16.9005
16.8100	16.9005
16.8200	16.7323
16.8300	17.2368
16.8400	0.0000
16.8500	8.2821
16.8600	25.1825
16.8700	17.0686
16.8800	0.1682
16.8900	0.0000
16.9000	0.0000
16.9100	0.0000
16.9200	16.7323
16.9300	25.1825
16.9400	17.2368
16.9500	0.0000
16.9600	0.0000
16.9700	0.0000
16.9800	0.0000
16.9900	0.0000
17.0000	0.0000
17.0100	8.2821
17.0200	8.6184
17.0300	0.0000
17.0400	25.1825
17.0500	8.6184
17.0600	0.0000
17.0700	0.0000
17.0800	8.2821
17.0900	8.6184
17.1000	0.0000
17.1100	0.0000
17.1200	0.0000
17.1300	8.2821
17.1400	33.8009
17.1500	16.9005
17.1600	16.9005
17.1700	25.3507
17.1800	8.6184
17.1900	24.8454
17.2000	17.4058
17.2100	25.0144
17.2200	0.3363
17.2300	16.7323
17.2400	0.1682
17.2500	0.0000
17.2600	0.0000
17.2700	0.0000
17.2800	0.0000
17.2900	16.7323
17.3000	33.6328
17.3100	0.3363
17.3200	0.0000
17.3300	0.0000
17.3400	0.0000
17.3500	0.0000
17.3600	0.0000
17.3700	0.0000
17.3800	0.0000
17.3900	0.0000
17.4000	41.5777
17.4100	17.4058
17.4200	0.1682
17.4300	16.7323
17.4400	0.1682
17.4500	0.0000
17.4600	16.7323
17.4700	0.1682
17.4800	0.0000
17.4900	25.0144
17.5000	8.6184
17.5100	25.3507
17.5200	8.6184
17.5300	8.2821
17.5400	42.2511
17.5500	17.0686
17.5600	25.1825
17.5700	8.6184
17.5800	16.7323
17.5900	16.9005
17.6000	0.1682
17.6100	8.2821
17.6200	25.3507
17.6300	8.6184
17.6400	16.7323
17.6500	0.1682
17.6600	0.0000
17.6700	0.0000
17.6800	8.2821
17.6900	8.6184
17.7000	0.0000
17.7100	0.0000
17.7200	0.0000
17.7300	0.0000
17.7400	0.0000
17.7500	0.0000
17.7600	0.0000
17.7700	0.0000
17.7800	0.0000
17.7900	25.1825
17.8000	0.1682
17.8100	0.0000
17.8200	16.7323
17.8300	33.6328
17.8400	0.3363
17.8500	0.0000
17.8600	16.7323
17.8700	16.9005
17.8800	16.9005
17.8900	16.7323
17.9000	17.2368
17.9100	0.0000
17.9200	41.5777
17.9300	17.4058
17.9400	16.9005
17.9500	16.9005
17.9600	8.4502
17.9700	16.9005
17.9800	42.0830
17.9900	33.9691
18.0000	25.3507
18.0100	25.3507
18.0200	0.1682
18.0300	0.0000
18.0400	8.2821
18.0500	8.6184
18.0600	16.7323
18.0700	50.5332
18.0800	25.5188
18.0900	58.4781
18.1000	34.1372
18.1100	34.1372
18.1200	42.0830
18.1300	50.1960
18.1400	76.2202
18.1500	142.6441
18.1600	202.6373
18.1700	218.8643
18.1800	86.5219
18.1900	58.9834
18.2000	67.6018
18.2100	34.3062
18.2200	0.3363
18.2300	0.0000
18.2400	16.7323
18.2500	33.6328
18.2600	8.6184
18.2700	17.0686
18.2800	0.0000
18.2900	25.1825
18.3000	25.1825
18.3100	17.0686
18.3200	25.1825
18.3300	33.9691
18.3400	33.6328
18.3500	50.7014
18.3600	0.3363
18.3700	0.0000
18.3800	25.0144
18.3900	8.7865
18.4000	0.0000
18.4100	0.0000
18.4200	41.7458
18.4300	0.5053
18.4400	25.0144
18.4500	0.3363
18.4600	8.2821
18.4700	16.9005
18.4800	25.3507
18.4900	0.1682
18.5000	8.2821
18.5100	8.6184
18.5200	41.5777
18.5300	17.4058
18.5400	0.1682
18.5500	16.7323
18.5600	0.1682
18.5700	0.0000
18.5800	0.0000
18.5900	8.2821
18.6000	33.6328
18.6100	0.3363
18.6200	25.1825
18.6300	0.1682
18.6400	16.5641
18.6500	8.7865
18.6600	0.0000
18.6700	0.0000
18.6800	0.0000
18.6900	16.7323
18.7000	25.1825
18.7100	8.7865
18.7200	0.0000
18.7300	0.0000
18.7400	16.5641
18.7500	17.2368
18.7600	8.2821
18.7700	16.9005
18.7800	25.3507
18.7900	0.1682
18.8000	0.0000
18.8100	33.4646
18.8200	25.3507
18.8300	17.0686
18.8400	0.1682
18.8500	25.0144
18.8600	17.0686
18.8700	8.4502
18.8800	8.6184
18.8900	0.0000
18.9000	8.2821
18.9100	25.1825
18.9200	17.0686
18.9300	16.9005
18.9400	16.9005
18.9500	8.6184
18.9600	41.5777
18.9700	42.2511
18.9800	25.8560
18.9900	16.9005
19.0000	33.4646
19.0100	42.4193
19.0200	17.0686
19.0300	0.1682
19.0400	25.0144
19.0500	17.0686
19.0600	8.4502
19.0700	16.9005
19.0800	0.1682
19.0900	0.0000
19.1000	0.0000
19.1100	0.0000
19.1200	0.0000
19.1300	16.5641
19.1400	25.6870
19.1500	8.2821
19.1600	41.9148
19.1700	42.2511
19.1800	25.6870
19.1900	50.1960
19.2000	26.0242
19.2100	0.0000
19.2200	0.0000
19.2300	16.7323
19.2400	8.4502
19.2500	17.0686
19.2600	16.7323
19.2700	16.9005
19.2800	0.1682
19.2900	50.3650
19.3000	8.7865
19.3100	25.1825
19.3200	8.4502
19.3300	33.8009
19.3400	25.1825
19.3500	0.3363
19.3600	0.0000
19.3700	0.0000
19.3800	58.6463
19.3900	33.8009
19.4000	17.2368
19.4100	16.7323
19.4200	25.5188
19.4300	25.1825
19.4400	25.5188
19.4500	16.7323
19.4600	25.3507
19.4700	0.3363
19.4800	0.0000
19.4900	0.0000
19.5000	16.5641
19.5100	34.1372
19.5200	25.0144
19.5300	8.7865
19.5400	16.7323
19.5500	0.1682
19.5600	8.2821
19.5700	33.8009
19.5800	0.1682
19.5900	8.2821
19.6000	42.0830
19.6100	25.5188
19.6200	33.6328
19.6300	17.0686
19.6400	0.1682
19.6500	0.0000
19.6600	0.0000
19.6700	8.2821
19.6800	25.3507
19.6900	16.9005
19.7000	33.6328
19.7100	0.3363
19.7200	16.5641
19.7300	42.2511
19.7400	8.7865
19.7500	25.1825
19.7600	25.1825
19.7700	8.7865
19.7800	8.4502
19.7900	0.0000
19.8000	8.2821
19.8100	25.1825
19.8200	8.7865
19.8300	16.5641
19.8400	25.6870
19.8500	0.0000
19.8600	33.4646
19.8700	33.9691
19.8800	0.1682
19.8900	41.9148
19.9000	50.5332
19.9100	33.8009
19.9200	8.9556
19.9300	0.0000
19.9400	25.0144
19.9500	42.2511
19.9600	8.6184
19.9700	0.1682
19.9800	50.1960
19.9900	17.2368
20.0000	16.7323
20.0100	8.7865
20.0200	0.0000
20.0300	8.2821
20.0400	42.0830
20.0500	8.7865
20.0600	8.2821
20.0700	33.6328
20.0800	17.2368
20.0900	25.1825
20.1000	41.9148
20.1100	17.0686
20.1200	83.9970
20.1300	9.2919
20.1400	25.0144
20.1500	33.8009
20.1600	83.9970
20.1700	42.5875
20.1800	25.6870
20.1900	25.3507
20.2000	83.8288
20.2100	34.4744
20.2200	58.8153
20.2300	51.0377
20.2400	33.4646
20.2500	17.2368
20.2600	25.3507
20.2700	75.5467
20.2800	0.6735
20.2900	33.4646
20.3000	50.3650
20.3100	59.4879
20.3200	33.9691
20.3300	0.1682
20.3400	41.7458
20.3500	42.0830
20.3600	67.9381
20.3700	8.7865
20.3800	24.8454
20.3900	42.4193
20.4000	34.1372
20.4100	108.3378
20.4200	52.0483
20.4300	84.1660
20.4400	25.3507
20.4500	58.9834
20.4600	34.3062
20.4700	92.1109
20.4800	76.2202
20.4900	59.3198
20.5000	50.5332
20.5100	42.5875
20.5200	42.5875
20.5300	25.1825
20.5400	50.1960
20.5500	59.4879
20.5600	25.6870
20.5700	8.4502
20.5800	50.3650
20.5900	42.2511
20.6000	42.4193
20.6100	100.7293
20.6200	51.0377
20.6300	92.7843
20.6400	59.1516
20.6500	17.7421
20.6600	58.3100
20.6700	67.6018
20.6800	42.7565
20.6900	50.8695
20.7000	58.9834
20.7100	83.6606
20.7200	109.6848
20.7300	60.1614
20.7400	67.4337
20.7500	75.8839
20.7600	50.7014
20.7700	59.4879
20.7800	41.9148
20.7900	92.7843
20.8000	67.7700
20.8100	25.6870
20.8200	75.5467
20.8300	68.2753
20.8400	83.9970
20.8500	50.7014
20.8600	25.8560
20.8700	25.3507
20.8800	42.0830
20.8900	33.9691
20.9000	33.8009
20.9100	58.8153
20.9200	75.8839
20.9300	84.5023
20.9400	59.4879
20.9500	58.8153
20.9600	42.4193
20.9700	75.5467
20.9800	51.2067
20.9900	75.3786
21.0000	59.9932
21.0100	83.6606
21.0200	76.7255
21.0300	67.4337
21.0400	33.9691
21.0500	34.1372
21.0600	33.8009
21.0700	33.8009
21.0800	33.8009
21.0900	8.4502
21.1000	33.6328
21.1100	16.9005
21.1200	92.2790
21.1300	68.4435
21.1400	108.6750
21.1500	68.4435
21.1600	50.8695
21.1700	16.9005
21.1800	41.9148
21.1900	51.2067
21.2000	33.6328
21.2100	33.4646
21.2200	59.3198
21.2300	34.1372
21.2400	92.2790
21.2500	51.0377
21.2600	67.4337
21.2700	51.0377
21.2800	67.4337
21.2900	42.2511
21.3000	75.7157
21.3100	17.5739
21.3200	75.0423
21.3300	118.4714
21.3400	293.4012
21.3500	245.8983
21.3600	178.4646
21.3700	60.1614
21.3800	50.3650
21.3900	26.0242
21.4000	41.9148
21.4100	58.9834
21.4200	59.3198
21.4300	50.5332
21.4400	34.1372
21.4500	42.2511
21.4600	50.5332
21.4700	92.6162
21.4800	50.7014
21.4900	76.2202
21.5000	59.4879
21.5100	50.5332
21.5200	50.7014
21.5300	92.1109
21.5400	76.7255
21.5500	34.1372
21.5600	50.5332
21.5700	67.2655
21.5800	67.2655
21.5900	85.1758
21.6000	159.3764
21.6100	51.8793
21.6200	67.2655
21.6300	84.5023
21.6400	67.7700
21.6500	176.2768
21.6600	127.2587
21.6700	59.9932
21.6800	134.6983
21.6900	117.9669
21.7000	101.9081
21.7100	176.4450
21.7200	110.3583
21.7300	118.1350
21.7400	210.0777
21.7500	170.1825
21.7600	202.6373
21.7700	268.5559
21.7800	204.3206
21.7900	261.7889
21.8000	286.1298
21.8100	321.4450
21.8200	345.1124
21.8300	347.8063
21.8400	396.9926
21.8500	496.2067
21.8600	489.4398
21.8700	534.2158
21.8800	473.8863
21.8900	522.3990
21.9000	591.6841
21.9100	699.3494
21.9200	676.6917
21.9300	699.8538
21.9400	685.3102
21.9500	734.8335
21.9600	783.6826
21.9700	838.0877
21.9800	837.2461
21.9900	986.1518
22.0000	1239.6587
22.0100	1234.9121
22.0200	1386.0056
22.0300	1566.5245
22.0400	1614.3299
22.0500	1839.9611
22.0600	1857.3669
22.0700	2491.9756
22.0800	2697.3398
22.0900	2561.2609
22.1000	3146.7172
22.1100	3385.3431
22.1200	3826.6065
22.1300	4863.4932
22.1400	5179.1823
22.1500	5941.0160
22.1600	7373.0759
22.1700	7870.5630
22.1800	10386.7778
22.1900	12169.3046
22.2000	15459.9114
22.2100	24065.8459
22.2200	29584.9219
22.2300	49848.9408
22.2400	111987.0388
22.2500	364768.8939
22.2600	1428882.1176
22.2700	1759171.4392
22.2800	538706.6115
22.2900	115450.1471
22.3000	35858.4944
22.3100	18119.8477
22.3200	11171.6733
22.3300	9925.3151
22.3400	10226.9982
22.3500	15760.9209
22.3600	24768.7972
22.3700	41338.7192
22.3800	96309.1008
22.3900	331618.0540
22.4000	2230553.9592
22.4100	6587917.8963
22.4200	2761733.4638
22.4300	453010.8324
22.4400	137224.4627
22.4500	73331.8572
22.4600	45923.5581
22.4700	31352.7712
22.4800	23394.0033
22.4900	17133.4610
22.5000	14037.2435
22.5100	11307.5165
22.5200	9396.5528
22.5300	8150.8683
22.5400	7260.7318
22.5500	6092.2443
22.5600	5162.3824
22.5700	4744.1126
22.5800	4030.0526
22.5900	3667.7361
22.6000	3435.8425
22.6100	3227.6502
22.6200	2930.5123
22.6300	2346.4366
22.6400	2397.6762
22.6500	1837.2343
22.6600	1876.4560
22.6700	1809.1905
22.6800	1440.4108
22.6900	1644.7643
22.7000	1303.5238
22.7100	1334.4626
22.7200	1003.0184
22.7300	1087.3864
22.7400	966.3563
22.7500	1146.7061
22.7600	737.1895
22.7700	744.4618
22.7800	694.4338
22.7900	644.4060
22.8000	666.5582
22.8100	542.1616
22.8200	497.0484
22.8300	600.4715
22.8400	456.4805
22.8500	507.1819
22.8600	423.1849
22.8700	364.5378
22.8800	412.3779
22.8900	381.1019
22.9000	279.8673
22.9100	321.1087
22.9200	429.2784
22.9300	305.8915
22.9400	278.6894
22.9500	228.8297
22.9600	253.5069
22.9700	269.5657
22.9800	128.4367
22.9900	185.7369
23.0000	135.3718
23.0100	127.2587
23.0200	92.9525
23.0300	176.4450
23.0400	102.4125
23.0500	109.6848
23.0600	152.1041
23.0700	135.0355
23.0800	193.5136
23.0900	144.1592
23.1000	76.5574
23.1100	118.1350
23.1200	118.3032
23.1300	93.4578
23.1400	83.9970
23.1500	101.4027
23.1600	68.1072
23.1700	84.8386
23.1800	125.9118
23.1900	84.5023
23.2000	93.1207
23.2100	118.3032
23.2200	59.4879
23.2300	84.5023
23.2400	109.1795
23.2500	9.9654
23.2600	25.1825
23.2700	8.4502
23.2800	25.1825
23.2900	59.1516
23.3000	75.5467
23.3100	34.1372
23.3200	67.6018
23.3300	42.5875
23.3400	33.4646
23.3500	42.4193
23.3600	33.8009
23.3700	17.2368
23.3800	0.0000
23.3900	16.7323
23.4000	25.3507
23.4100	41.9148
23.4200	33.8009
23.4300	42.4193
23.4400	58.6463
23.4500	50.8695
23.4600	126.5853
23.4700	234.2496
23.4800	321.4450
23.4900	52.7210
23.5000	67.6018
23.5100	34.3062
23.5200	42.4193
23.5300	33.4646
23.5400	50.5332
23.5500	25.8560
23.5600	16.7323
23.5700	50.3650
23.5800	17.4058
23.5900	8.6184
23.6000	16.7323
23.6100	8.6184
23.6200	0.0000
23.6300	16.5641
23.6400	25.3507
23.6500	8.6184
23.6600	42.0830
23.6700	25.5188
23.6800	33.4646
23.6900	58.9834
23.7000	0.6735
23.7100	8.2821
23.7200	25.1825
23.7300	8.6184
23.7400	25.1825
23.7500	8.7865
23.7600	0.0000
23.7700	8.2821
23.7800	25.3507
23.7900	33.8009
23.8000	16.9005
23.8100	33.6328
23.8200	50.7014
23.8300	8.6184
23.8400	16.9005
23.8500	25.1825
23.8600	25.5188
23.8700	25.1825
23.8800	25.5188
23.8900	17.0686
23.9000	25.1825
23.9100	41.9148
23.9200	50.8695
23.9300	25.5188
23.9400	33.8009
23.9500	0.1682
23.9600	33.2956
23.9700	34.1372
23.9800	8.4502
23.9900	58.6463
24.0000	42.4193
24.0100	0.5053
24.0200	0.0000
24.0300	25.1825
24.0400	50.1960
24.0500	33.9691
24.0600	25.5188
24.0700	25.5188
24.0800	33.4646
24.0900	58.9834
24.1000	25.8560
24.1100	16.7323
24.1200	50.8695
24.1300	58.4781
24.1400	34.4744
24.1500	25.1825
24.1600	33.8009
24.1700	67.2655
24.1800	0.6735
24.1900	33.4646
24.2000	42.2511
24.2100	33.8009
24.2200	58.8153
24.2300	42.2511
24.2400	17.4058
24.2500	0.1682
24.2600	0.0000
24.2700	25.1825
24.2800	25.1825
24.2900	17.0686
24.3000	58.6463
24.3100	8.9556
24.3200	41.9148
24.3300	25.5188
24.3400	67.0965
24.3500	9.2919
24.3600	75.3786
24.3700	42.5875
24.3800	33.9691
24.3900	16.9005
24.4000	50.3650
24.4100	42.4193
24.4200	33.9691
24.4300	8.4502
24.4400	50.1960
24.4500	0.6735
24.4600	50.0279
24.4700	25.6870
24.4800	42.2511
24.4900	33.6328
24.5000	59.1516
24.5100	42.2511
24.5200	42.0830
24.5300	33.9691
24.5400	25.6870
24.5500	42.0830
24.5600	50.7014
24.5700	50.7014
24.5800	58.6463
24.5900	25.8560
24.6000	58.6463
24.6100	17.5739
24.6200	8.6184
24.6300	8.2821
24.6400	58.6463
24.6500	9.1237
24.6600	41.5777
24.6700	51.2067
24.6800	66.5920
24.6900	109.8530
24.7000	76.8937
24.7100	33.6328
24.7200	33.9691
24.7300	58.6463
24.7400	34.1372
24.7500	25.5188
24.7600	8.7865
24.7700	16.5641
24.7800	33.8009
24.7900	33.8009
24.8000	25.3507
24.8100	17.0686
24.8200	16.7323
24.8300	17.0686
24.8400	33.4646
24.8500	42.4193
24.8600	42.0830
24.8700	33.9691
24.8800	25.5188
24.8900	33.8009
24.9000	16.9005
24.9100	16.9005
24.9200	25.3507
24.9300	8.6184
24.9400	0.0000
24.9500	25.0144
24.9600	25.5188
24.9700	67.0965
24.9800	51.0377
24.9900	25.5188
25.0000	8.4502
25.0100	8.6184
25.0200	0.0000
25.0300	0.0000
25.0400	0.0000
25.0500	8.2821
25.0600	33.6328
25.0700	0.3363
25.0800	0.0000
25.0900	8.2821
25.1000	25.1825
25.1100	25.3507
25.1200	17.2368
25.1300	16.7323
25.1400	8.4502
25.1500	17.0686
25.1600	16.7323
25.1700	33.8009
25.1800	17.0686
25.1900	8.2821
25.2000	33.6328
25.2100	8.6184
25.2200	8.6184
25.2300	25.0144
25.2400	8.7865
25.2500	16.7323
25.2600	0.1682
25.2700	0.0000
25.2800	8.2821
25.2900	16.9005
25.3000	16.9005
25.3100	8.4502
25.3200	25.1825
25.3300	17.0686
25.3400	0.1682
25.3500	0.0000
25.3600	0.0000
25.3700	0.0000
25.3800	0.0000
25.3900	0.0000
25.4000	0.0000
25.4100	0.0000
25.4200	0.0000
25.4300	25.1825
25.4400	0.1682
25.4500	0.0000
25.4600	0.0000
25.4700	0.0000
25.4800	0.0000
25.4900	0.0000
25.5000	0.0000
25.5100	0.0000
25.5200	0.0000
25.5300	0.0000
25.5400	0.0000
25.5500	16.7323
25.5600	16.7323
25.5700	8.7865
25.5800	0.0000
25.5900	16.7323
25.6000	0.1682
25.6100	0.0000
25.6200	0.0000
25.6300	0.0000
25.6400	0.0000
25.6500	0.0000
25.6600	0.0000
25.6700	0.0000
25.6800	16.7323
25.6900	0.1682
25.7000	0.0000
25.7100	0.0000
25.7200	25.0144
25.7300	17.0686
25.7400	16.9005
25.7500	125.5755
25.7600	335.4842
25.7700	289.6645
25.7800	35.1479
25.7900	0.1682
25.8000	0.0000
25.8100	0.0000
25.8200	0.0000
25.8300	0.0000
25.8400	0.0000
25.8500	0.0000
25.8600	16.7323
25.8700	0.1682
25.8800	0.0000
25.8900	16.7323
25.9000	0.1682
25.9100	0.0000
25.9200	0.0000
25.9300	33.4646
25.9400	0.3363
25.9500	0.0000
25.9600	0.0000
25.9700	0.0000
25.9800	0.0000
25.9900	0.0000
26.0000	0.0000
26.0100	16.7323
26.0200	0.1682
26.0300	25.1825
26.0400	0.1682
26.0500	16.7323
26.0600	8.6184
26.0700	25.1825
26.0800	8.6184
26.0900	0.0000
26.1000	0.0000
26.1100	0.0000
26.1200	25.1825
26.1300	8.6184
26.1400	0.0000
26.1500	0.0000
26.1600	0.0000
26.1700	0.0000
26.1800	0.0000
26.1900	0.0000
26.2000	0.0000
26.2100	0.0000
26.2200	0.0000
26.2300	16.7323
26.2400	0.1682
26.2500	0.0000
26.2600	0.0000
26.2700	16.5641
26.2800	8.7865
26.2900	0.0000
26.3000	0.0000
26.3100	0.0000
26.3200	0.0000
26.3300	25.0144
26.3400	0.3363
26.3500	0.0000
26.3600	0.0000
26.3700	0.0000
26.3800	0.0000
26.3900	0.0000
26.4000	0.0000
26.4100	0.0000
26.4200	0.0000
26.4300	16.5641
26.4400	8.7865
26.4500	0.0000
26.4600	0.0000
26.4700	0.0000
26.4800	0.0000
26.4900	0.0000
26.5000	0.0000
26.5100	0.0000
26.5200	25.0144
26.5300	0.3363
26.5400	0.0000
26.5500	8.2821
26.5600	17.0686
26.5700	0.0000
26.5800	16.7323
26.5900	0.1682
26.6000	0.0000
26.6100	16.5641
26.6200	17.0686
26.6300	0.1682
26.6400	0.0000
26.6500	0.0000
26.6600	0.0000
26.6700	16.7323
26.6800	0.1682
26.6900	8.2821
26.7000	8.6184
26.7100	0.0000
26.7200	0.0000
26.7300	0.0000
26.7400	0.0000
26.7500	0.0000
26.7600	0.0000
26.7700	0.0000
26.7800	0.0000
26.7900	16.7323
26.8000	0.1682
26.8100	0.0000
26.8200	0.0000
26.8300	8.2821
26.8400	8.6184
26.8500	16.7323
26.8600	0.1682
26.8700	0.0000
26.8800	0.0000
26.8900	0.0000
26.9000	0.0000
26.9100	0.0000
26.9200	0.0000
26.9300	0.0000
26.9400	0.0000
26.9500	0.0000
26.9600	8.2821
26.9700	8.6184
26.9800	0.0000
26.9900	8.2821
27.0000	8.6184
27.0100	0.0000
27.0200	0.0000
27.0300	0.0000
27.0400	0.0000
27.0500	0.0000
27.0600	0.0000
27.0700	0.0000
27.0800	0.0000
27.0900	0.0000
27.1000	0.0000
27.1100	0.0000
27.1200	0.0000
27.1300	0.0000
27.1400	0.0000
27.1500	0.0000
27.1600	8.2821
27.1700	8.6184
27.1800	0.0000
27.1900	0.0000
27.2000	33.4646
27.2100	0.3363
27.2200	0.0000
27.2300	0.0000
27.2400	0.0000
27.2500	0.0000
27.2600	0.0000
27.2700	0.0000
27.2800	0.0000
27.2900	0.0000
27.3000	8.2821
27.3100	16.9005
27.3200	0.1682
27.3300	0.0000
27.3400	0.0000
27.3500	0.0000
27.3600	0.0000
27.3700	0.0000
27.3800	0.0000
27.3900	0.0000
27.4000	0.0000
27.4100	0.0000
27.4200	0.0000
27.4300	16.5641
27.4400	8.7865
27.4500	0.0000
27.4600	8.2821
27.4700	25.1825
27.4800	0.3363
27.4900	0.0000
27.5000	0.0000
27.5100	0.0000
27.5200	0.0000
27.5300	0.0000
27.5400	0.0000
27.5500	0.0000
27.5600	0.0000
27.5700	0.0000
27.5800	0.0000
27.5900	8.2821
27.6000	8.6184
27.6100	0.0000
27.6200	0.0000
27.6300	16.7323
27.6400	16.9005
27.6500	16.9005
27.6600	0.1682
27.6700	0.0000
27.6800	25.1825
27.6900	8.6184
27.7000	0.0000
27.7100	0.0000
27.7200	0.0000
27.7300	0.0000
27.7400	0.0000
27.7500	16.5641
27.7600	25.6870
27.7700	33.4646
27.7800	25.6870
27.7900	0.0000
27.8000	0.0000
27.8100	0.0000
27.8200	0.0000
27.8300	0.0000
27.8400	8.2821
27.8500	8.6184
27.8600	0.0000
27.8700	0.0000
27.8800	0.0000
27.8900	0.0000
27.9000	0.0000
27.9100	0.0000
27.9200	8.2821
27.9300	16.9005
27.9400	0.1682
27.9500	0.0000
27.9600	0.0000
27.9700	0.0000
27.9800	0.0000
27.9900	0.0000
28.0000	0.0000
28.0100	0.0000
28.0200	0.0000
28.0300	0.0000
28.0400	0.0000
28.0500	0.0000
28.0600	0.0000
28.0700	0.0000
28.0800	0.0000
28.0900	0.0000
28.1000	0.0000
28.1100	0.0000
28.1200	0.0000
28.1300	0.0000
28.1400	16.7323
28.1500	0.1682
28.1600	16.7323
28.1700	0.1682
28.1800	16.7323
28.1900	0.1682
28.2000	8.2821
28.2100	8.6184
28.2200	0.0000
28.2300	0.0000
28.2400	0.0000
28.2500	0.0000
28.2600	0.0000
28.2700	0.0000
28.2800	0.0000
28.2900	0.0000
28.3000	0.0000
28.3100	0.0000
28.3200	0.0000
28.3300	16.7323
28.3400	0.1682
28.3500	0.0000
28.3600	0.0000
28.3700	16.7323
28.3800	0.1682
28.3900	0.0000
28.4000	0.0000
28.4100	0.0000
28.4200	0.0000
28.4300	0.0000
28.4400	0.0000
28.4500	0.0000
28.4600	0.0000
28.4700	0.0000
28.4800	0.0000
28.4900	0.0000
28.5000	0.0000
28.5100	0.0000
28.5200	25.1825
28.5300	8.6184
28.5400	0.0000
28.5500	0.0000
28.5600	0.0000
28.5700	0.0000
28.5800	0.0000
28.5900	0.0000
28.6000	0.0000
28.6100	0.0000
28.6200	0.0000
28.6300	0.0000
28.6400	0.0000
28.6500	0.0000
28.6600	0.0000
28.6700	0.0000
28.6800	0.0000
28.6900	0.0000
28.7000	0.0000
28.7100	8.2821
28.7200	8.6184
28.7300	0.0000
28.7400	0.0000
28.7500	0.0000
28.7600	0.0000
28.7700	0.0000
28.7800	0.0000
28.7900	0.0000
28.8000	0.0000
28.8100	8.2821
28.8200	8.6184
28.8300	0.0000
28.8400	0.0000
28.8500	0.0000
28.8600	0.0000
28.8700	0.0000
28.8800	8.2821
28.8900	16.9005
28.9000	0.1682
28.9100	0.0000
28.9200	0.0000
28.9300	0.0000
28.9400	0.0000
28.9500	0.0000
28.9600	0.0000
28.9700	0.0000
28.9800	0.0000
28.9900	0.0000
29.0000	0.0000
29.0100	0.0000
29.0200	0.0000
29.0300	8.2821
29.0400	25.1825
29.0500	8.7865
29.0600	0.0000
29.0700	0.0000
29.0800	0.0000
29.0900	0.0000
29.1000	0.0000
29.1100	0.0000
29.1200	0.0000
29.1300	0.0000
29.1400	0.0000
29.1500	16.7323
29.1600	0.1682
29.1700	0.0000
29.1800	0.0000
29.1900	0.0000
29.2000	0.0000
29.2100	0.0000
29.2200	0.0000
29.2300	0.0000
29.2400	0.0000
29.2500	0.0000
29.2600	0.0000
29.2700	0.0000
29.2800	0.0000
29.2900	0.0000
29.3000	0.0000
29.3100	0.0000
29.3200	0.0000
29.3300	16.7323
29.3400	0.1682
29.3500	0.0000
29.3600	0.0000
29.3700	0.0000
29.3800	0.0000
29.3900	0.0000
29.4000	0.0000
29.4100	0.0000
29.4200	0.0000
29.4300	0.0000
29.4400	0.0000
29.4500	0.0000
29.4600	0.0000
29.4700	0.0000
29.4800	0.0000
29.4900	0.0000
29.5000	0.0000
29.5100	0.0000
29.5200	0.0000
29.5300	0.0000
29.5400	0.0000
29.5500	0.0000
29.5600	0.0000
29.5700	0.0000
29.5800	0.0000
29.5900	0.0000
29.6000	0.0000
29.6100	0.0000
29.6200	0.0000
29.6300	0.0000
29.6400	0.0000
29.6500	0.0000
29.6600	0.0000
29.6700	0.0000
29.6800	16.7323
29.6900	0.1682
29.7000	0.0000
29.7100	0.0000
29.7200	0.0000
29.7300	0.0000
29.7400	0.0000
29.7500	8.2821
29.7600	8.6184
29.7700	0.0000
29.7800	0.0000
29.7900	0.0000
29.8000	0.0000
29.8100	0.0000
29.8200	0.0000
29.8300	0.0000
29.8400	0.0000
29.8500	0.0000
29.8600	0.0000
29.8700	0.0000
29.8800	0.0000
29.8900	0.0000
29.9000	0.0000
29.9100	0.0000
29.9200	0.0000
29.9300	0.0000
29.9400	0.0000
29.9500	0.0000
29.9600	0.0000
29.9700	0.0000
29.9800	0.0000
29.9900	0.0000
30.0000	0.0000
30.0100	0.0000
30.0200	0.0000
30.0300	0.0000
30.0400	0.0000
30.0500	0.0000
30.0600	0.0000
30.0700	0.0000
30.0800	0.0000
30.0900	16.7323
30.1000	0.1682
30.1100	8.2821
30.1200	8.6184
30.1300	8.2821
30.1400	25.3507
30.1500	25.1825
30.1600	8.6184
30.1700	16.9005
30.1800	25.1825
30.1900	0.3363
30.2000	0.0000
30.2100	0.0000
30.2200	0.0000
30.2300	0.0000
30.2400	0.0000
30.2500	0.0000
30.2600	16.7323
30.2700	0.1682
30.2800	8.2821
30.2900	16.9005
30.3000	8.6184
30.3100	8.2821
30.3200	17.0686
30.3300	0.0000
30.3400	0.0000
30.3500	0.0000
30.3600	0.0000
30.3700	0.0000
30.3800	16.7323
30.3900	0.1682
30.4000	0.0000
30.4100	0.0000
30.4200	0.0000
30.4300	0.0000
30.4400	0.0000
30.4500	0.0000
30.4600	0.0000
30.4700	0.0000
30.4800	16.7323
30.4900	0.1682
30.5000	0.0000
30.5100	0.0000
30.5200	0.0000
30.5300	0.0000
30.5400	8.2821
30.5500	8.6184
30.5600	0.0000
30.5700	0.0000
30.5800	0.0000
30.5900	0.0000
30.6000	0.0000
30.6100	25.1825
30.6200	8.6184
30.6300	0.0000
30.6400	0.0000
30.6500	0.0000
30.6600	0.0000
30.6700	0.0000
30.6800	0.0000
30.6900	0.0000
30.7000	0.0000
30.7100	0.0000
30.7200	0.0000
30.7300	0.0000
30.7400	0.0000
30.7500	0.0000
30.7600	0.0000
30.7700	0.0000
30.7800	0.0000
30.7900	0.0000
30.8000	0.0000
30.8100	0.0000
30.8200	0.0000
30.8300	0.0000
30.8400	0.0000
30.8500	0.0000
30.8600	0.0000
30.8700	0.0000
30.8800	8.2821
30.8900	8.6184
30.9000	0.0000
30.9100	0.0000
30.9200	16.7323
30.9300	0.1682
30.9400	0.0000
30.9500	0.0000
30.9600	0.0000
30.9700	0.0000
30.9800	0.0000
30.9900	0.0000
31.0000	0.0000
31.0100	0.0000
31.0200	0.0000
31.0300	0.0000
31.0400	0.0000
31.0500	0.0000
31.0600	0.0000
31.0700	0.0000
31.0800	0.0000
31.0900	0.0000
31.1000	0.0000
31.1100	0.0000
31.1200	0.0000
31.1300	0.0000
31.1400	0.0000
31.1500	0.0000
31.1600	0.0000
31.1700	8.2821
31.1800	16.9005
31.1900	8.6184
31.2000	0.0000
31.2100	0.0000
31.2200	0.0000
31.2300	0.0000
31.2400	0.0000
31.2500	0.0000
31.2600	0.0000
31.2700	16.7323
31.2800	0.1682
31.2900	0.0000
31.3000	0.0000
31.3100	0.0000
31.3200	0.0000
31.3300	0.0000
31.3400	0.0000
31.3500	0.0000
31.3600	0.0000
31.3700	0.0000
31.3800	0.0000
31.3900	0.0000
31.4000	25.1825
31.4100	8.6184
31.4200	0.0000
31.4300	0.0000
31.4400	0.0000
31.4500	16.5641
31.4600	8.7865
31.4700	0.0000
31.4800	0.0000
31.4900	0.0000
31.5000	0.0000
31.5100	0.0000
31.5200	0.0000
31.5300	0.0000
31.5400	16.7323
31.5500	8.6184
31.5600	0.0000
31.5700	16.7323
31.5800	0.1682
31.5900	0.0000
31.6000	0.0000
31.6100	0.0000
31.6200	0.0000
31.6300	0.0000
31.6400	0.0000
31.6500	0.0000
31.6600	0.0000
31.6700	0.0000
31.6800	0.0000
31.6900	0.0000
31.7000	0.0000
31.7100	0.0000
31.7200	0.0000
31.7300	0.0000
31.7400	0.0000
31.7500	0.0000
31.7600	0.0000
31.7700	0.0000
31.7800	0.0000
31.7900	0.0000
31.8000	0.0000
31.8100	0.0000
31.8200	0.0000
31.8300	0.0000
31.8400	0.0000
31.8500	0.0000
31.8600	0.0000
31.8700	0.0000
31.8800	0.0000
31.8900	0.0000
31.9000	0.0000
31.9100	0.0000
31.9200	25.1825
31.9300	0.1682
31.9400	0.0000
31.9500	0.0000
31.9600	0.0000
31.9700	0.0000
31.9800	0.0000
31.9900	0.0000
32.0000	0.0000
32.0100	0.0000
32.0200	0.0000
32.0300	0.0000
32.0400	8.2821
32.0500	25.3507
32.0600	8.6184
32.0700	0.0000
32.0800	0.0000
32.0900	0.0000
32.1000	0.0000
32.1100	0.0000
32.1200	0.0000
32.1300	0.0000
32.1400	0.0000
32.1500	0.0000
32.1600	8.2821
32.1700	8.6184
32.1800	0.0000
32.1900	0.0000
32.2000	0.0000
32.2100	0.0000
32.2200	0.0000
32.2300	0.0000
32.2400	0.0000
32.2500	0.0000
32.2600	0.0000
32.2700	16.7323
32.2800	0.1682
32.2900	0.0000
32.3000	0.0000
32.3100	0.0000
32.3200	0.0000
32.3300	16.5641
32.3400	8.7865
32.3500	0.0000
32.3600	8.2821
32.3700	8.6184
32.3800	0.0000
32.3900	0.0000
32.4000	0.0000
32.4100	0.0000
32.4200	0.0000
32.4300	0.0000
32.4400	0.0000
32.4500	0.0000
32.4600	8.2821
32.4700	8.6184
32.4800	0.0000
32.4900	0.0000
32.5000	0.0000
32.5100	0.0000
32.5200	0.0000
32.5300	0.0000
32.5400	0.0000
32.5500	0.0000
32.5600	0.0000
32.5700	0.0000
32.5800	0.0000
32.5900	0.0000
32.6000	0.0000
32.6100	0.0000
32.6200	0.0000
32.6300	0.0000
32.6400	0.0000
32.6500	0.0000
32.6600	0.0000
32.6700	0.0000
32.6800	0.0000
32.6900	25.0144
32.7000	0.3363
32.7100	0.0000
32.7200	0.0000
32.7300	0.0000
32.7400	8.2821
32.7500	16.9005
32.7600	0.1682
32.7700	0.0000
32.7800	0.0000
32.7900	0.0000
32.8000	0.0000
32.8100	0.0000
32.8200	0.0000
32.8300	0.0000
32.8400	0.0000
32.8500	0.0000
32.8600	0.0000
32.8700	0.0000
32.8800	8.2821
32.8900	8.6184
32.9000	0.0000
32.9100	0.0000
32.9200	16.7323
32.9300	25.3507
32.9400	0.1682
32.9500	8.2821
32.9600	25.1825
32.9700	0.3363
32.9800	0.0000
32.9900	0.0000
33.0000	0.0000
33.0100	0.0000
33.0200	0.0000
33.0300	0.0000
33.0400	0.0000
33.0500	8.2821
33.0600	8.6184
33.0700	0.0000
33.0800	0.0000
33.0900	16.7323
33.1000	0.1682
33.1100	0.0000
33.1200	0.0000
33.1300	0.0000
33.1400	0.0000
33.1500	0.0000
33.1600	0.0000
33.1700	0.0000
33.1800	0.0000
33.1900	0.0000
33.2000	0.0000
33.2100	0.0000
33.2200	0.0000
33.2300	0.0000
33.2400	0.0000
33.2500	0.0000
33.2600	0.0000
33.2700	16.7323
33.2800	0.1682
33.2900	0.0000
33.3000	0.0000
33.3100	0.0000
33.3200	0.0000
33.3300	0.0000
33.3400	0.0000
33.3500	0.0000
33.3600	0.0000
33.3700	16.5641
33.3800	8.7865
33.3900	0.0000
33.4000	0.0000
33.4100	0.0000
33.4200	16.7323
33.4300	8.6184
33.4400	0.0000
33.4500	0.0000
33.4600	0.0000
33.4700	0.0000
33.4800	0.0000
33.4900	0.0000
33.5000	0.0000
33.5100	0.0000
33.5200	0.0000
33.5300	0.0000
33.5400	0.0000
33.5500	0.0000
33.5600	0.0000
33.5700	0.0000
33.5800	0.0000
33.5900	0.0000
33.6000	0.0000
33.6100	0.0000
33.6200	0.0000
33.6300	0.0000
33.6400	0.0000
33.6500	0.0000
33.6600	0.0000
33.6700	0.0000
33.6800	0.0000
33.6900	0.0000
33.7000	16.7323
33.7100	8.6184
33.7200	16.7323
33.7300	0.1682
33.7400	16.5641
33.7500	17.2368
33.7600	0.0000
33.7700	0.0000
33.7800	0.0000
33.7900	16.5641
33.8000	8.7865
33.8100	0.0000
33.8200	0.0000
33.8300	0.0000
33.8400	0.0000
33.8500	0.0000
33.8600	0.0000
33.8700	0.0000
33.8800	0.0000
33.8900	0.0000
33.9000	0.0000
33.9100	0.0000
33.9200	0.0000
33.9300	0.0000
33.9400	8.2821
33.9500	8.6184
33.9600	0.0000
33.9700	0.0000
33.9800	0.0000
33.9900	0.0000
34.0000	0.0000
34.0100	0.0000
34.0200	8.2821
34.0300	8.6184
34.0400	0.0000
34.0500	0.0000
34.0600	0.0000
34.0700	0.0000
34.0800	0.0000
34.0900	0.0000
34.1000	8.2821
34.1100	8.6184
34.1200	0.0000
34.1300	0.0000
34.1400	0.0000
34.1500	0.0000
34.1600	0.0000
34.1700	16.7323
34.1800	0.1682
34.1900	0.0000
34.2000	8.2821
34.2100	8.6184
34.2200	0.0000
34.2300	8.2821
34.2400	8.6184
34.2500	16.7323
34.2600	0.1682
34.2700	0.0000
34.2800	0.0000
34.2900	0.0000
34.3000	0.0000
34.3100	0.0000
34.3200	0.0000
34.3300	0.0000
34.3400	0.0000
34.3500	0.0000
34.3600	0.0000
34.3700	0.0000
34.3800	0.0000
34.3900	0.0000
34.4000	0.0000
34.4100	0.0000
34.4200	0.0000
34.4300	0.0000
34.4400	0.0000
34.4500	0.0000
34.4600	0.0000
34.4700	0.0000
34.4800	16.7323
34.4900	8.6184
34.5000	0.0000
34.5100	8.2821
34.5200	8.6184
34.5300	0.0000
34.5400	0.0000
34.5500	0.0000
34.5600	0.0000
34.5700	0.0000
34.5800	0.0000
34.5900	0.0000
34.6000	0.0000
34.6100	0.0000
34.6200	0.0000
34.6300	0.0000
34.6400	0.0000
34.6500	0.0000
34.6600	0.0000
34.6700	0.0000
34.6800	0.0000
34.6900	0.0000
34.7000	0.0000
34.7100	0.0000
34.7200	0.0000
34.7300	0.0000
34.7400	0.0000
34.7500	0.0000
34.7600	0.0000
34.7700	0.0000
34.7800	0.0000
34.7900	0.0000
34.8000	0.0000
34.8100	0.0000
34.8200	0.0000
34.8300	0.0000
34.8400	16.7323
34.8500	0.1682
34.8600	0.0000
34.8700	0.0000
34.8800	0.0000
34.8900	0.0000
34.9000	0.0000
34.9100	0.0000
34.9200	0.0000
34.9300	0.0000
34.9400	0.0000
34.9500	0.0000
34.9600	0.0000
34.9700	0.0000
34.9800	0.0000
34.9900	25.1825
35.0000	16.9005
35.0100	8.6184
35.0200	0.0000
35.0300	0.0000
35.0400	0.0000
35.0500	0.0000
35.0600	0.0000
35.0700	0.0000
35.0800	0.0000
35.0900	0.0000
35.1000	0.0000
35.1100	0.0000
35.1200	0.0000
35.1300	0.0000
35.1400	0.0000
35.1500	0.0000
35.1600	0.0000
35.1700	0.0000
35.1800	0.0000
35.1900	0.0000
35.2000	0.0000
35.2100	16.7323
35.2200	0.1682
35.2300	0.0000
35.2400	8.2821
35.2500	8.6184
35.2600	0.0000
35.2700	0.0000
35.2800	0.0000
35.2900	0.0000
35.3000	0.0000
35.3100	0.0000
35.3200	0.0000
35.3300	0.0000
35.3400	16.7323
35.3500	8.4502
35.3600	8.6184
35.3700	0.0000
35.3800	0.0000
35.3900	0.0000
35.4000	0.0000
35.4100	0.0000
35.4200	0.0000
35.4300	0.0000
35.4400	0.0000
35.4500	0.0000
35.4600	0.0000
35.4700	0.0000
35.4800	0.0000
35.4900	25.1825
35.5000	0.1682
35.5100	0.0000
35.5200	0.0000
35.5300	0.0000
35.5400	0.0000
35.5500	25.1825
35.5600	0.1682
35.5700	0.0000
35.5800	0.0000
35.5900	8.2821
35.6000	8.6184
35.6100	0.0000
35.6200	0.0000
35.6300	0.0000
35.6400	0.0000
35.6500	0.0000
35.6600	0.0000
35.6700	0.0000
35.6800	16.7323
35.6900	0.1682
35.7000	0.0000
35.7100	16.7323
35.7200	25.3507
35.7300	0.1682
35.7400	0.0000
35.7500	8.2821
35.7600	8.6184
35.7700	0.0000
35.7800	0.0000
35.7900	0.0000
35.8000	0.0000
35.8100	0.0000
35.8200	0.0000
35.8300	0.0000
35.8400	0.0000
35.8500	0.0000
35.8600	0.0000
35.8700	0.0000
35.8800	0.0000
35.8900	0.0000
35.9000	8.2821
35.9100	8.6184
35.9200	0.0000
35.9300	0.0000
35.9400	0.0000
35.9500	0.0000
35.9600	0.0000
35.9700	0.0000
35.9800	0.0000
35.9900	0.0000
36.0000	0.0000
36.0100	0.0000
36.0200	0.0000
36.0300	0.0000
36.0400	0.0000
36.0500	0.0000
36.0600	0.0000
36.0700	0.0000
36.0800	0.0000
36.0900	0.0000
36.1000	0.0000
36.1100	0.0000
36.1200	0.0000
36.1300	0.0000
36.1400	8.2821
36.1500	8.6184
36.1600	0.0000
36.1700	0.0000
36.1800	0.0000
36.1900	0.0000
36.2000	0.0000
36.2100	0.0000
36.2200	0.0000
36.2300	25.0144
36.2400	0.3363
36.2500	0.0000
36.2600	0.0000
36.2700	0.0000
36.2800	0.0000
36.2900	0.0000
36.3000	0.0000
36.3100	0.0000
36.3200	0.0000
36.3300	0.0000
36.3400	0.0000
36.3500	0.0000
36.3600	0.0000
36.3700	0.0000
36.3800	0.0000
36.3900	0.0000
36.4000	0.0000
36.4100	0.0000
36.4200	0.0000
36.4300	0.0000
36.4400	0.0000
36.4500	0.0000
36.4600	0.0000
36.4700	8.2821
36.4800	17.0686
36.4900	0.0000
36.5000	0.0000
36.5100	0.0000
36.5200	0.0000
36.5300	0.0000
36.5400	0.0000
36.5500	0.0000
36.5600	0.0000
36.5700	0.0000
36.5800	0.0000
36.5900	0.0000
36.6000	8.2821
36.6100	16.9005
36.6200	8.6184
36.6300	0.0000
36.6400	16.5641
36.6500	25.3507
36.6600	0.3363
36.6700	0.0000
36.6800	0.0000
36.6900	0.0000
36.7000	0.0000
36.7100	0.0000
36.7200	16.7323
36.7300	0.1682
36.7400	0.0000
36.7500	0.0000
36.7600	16.7323
36.7700	0.1682
36.7800	0.0000
36.7900	0.0000
36.8000	0.0000
36.8100	0.0000
36.8200	0.0000
36.8300	0.0000
36.8400	0.0000
36.8500	0.0000
36.8600	0.0000
36.8700	0.0000
36.8800	0.0000
36.8900	8.2821
36.9000	25.1825
36.9100	0.3363
36.9200	0.0000
36.9300	0.0000
36.9400	0.0000
36.9500	0.0000
36.9600	16.7323
36.9700	0.1682
36.9800	0.0000
36.9900	0.0000
37.0000	0.0000
37.0100	0.0000
37.0200	8.2821
37.0300	16.9005
37.0400	0.1682
37.0500	0.0000
37.0600	0.0000
37.0700	0.0000
37.0800	8.2821
37.0900	16.9005
37.1000	8.6184
37.1100	0.0000
37.1200	8.2821
37.1300	8.6184
37.1400	0.0000
37.1500	0.0000
37.1600	0.0000
37.1700	0.0000
37.1800	0.0000
37.1900	0.0000
37.2000	0.0000
37.2100	0.0000
37.2200	0.0000
37.2300	0.0000
37.2400	16.7323
37.2500	0.1682
37.2600	0.0000
37.2700	0.0000
37.2800	0.0000
37.2900	0.0000
37.3000	0.0000
37.3100	8.2821
37.3200	8.6184
37.3300	33.4646
37.3400	0.3363
37.3500	8.2821
37.3600	8.6184
37.3700	0.0000
37.3800	0.0000
37.3900	0.0000
37.4000	0.0000
37.4100	0.0000
37.4200	0.0000
37.4300	0.0000
37.4400	0.0000
37.4500	0.0000
37.4600	0.0000
37.4700	0.0000
37.4800	8.2821
37.4900	8.6184
37.5000	0.0000
37.5100	16.7323
37.5200	8.6184
37.5300	8.2821
37.5400	41.7458
37.5500	17.4058
37.5600	0.1682
37.5700	0.0000
37.5800	0.0000
37.5900	0.0000
37.6000	0.0000
37.6100	0.0000
37.6200	0.0000
37.6300	0.0000
37.6400	25.1825
37.6500	0.1682
37.6600	0.0000
37.6700	0.0000
37.6800	0.0000
37.6900	0.0000
37.7000	16.7323
37.7100	0.1682
37.7200	0.0000
37.7300	0.0000
37.7400	0.0000
37.7500	0.0000
37.7600	0.0000
37.7700	0.0000
37.7800	0.0000
37.7900	16.7323
37.8000	8.6184
37.8100	0.0000
37.8200	0.0000
37.8300	0.0000
37.8400	0.0000
37.8500	0.0000
37.8600	0.0000
37.8700	0.0000
37.8800	0.0000
37.8900	0.0000
37.9000	0.0000
37.9100	0.0000
37.9200	0.0000
37.9300	0.0000
37.9400	0.0000
37.9500	0.0000
37.9600	0.0000
37.9700	0.0000
37.9800	0.0000
37.9900	8.2821
38.0000	17.0686
38.0100	0.0000
38.0200	0.0000
38.0300	0.0000
38.0400	0.0000
38.0500	8.2821
38.0600	8.6184
38.0700	0.0000
38.0800	0.0000
38.0900	0.0000
38.1000	0.0000
38.1100	0.0000
38.1200	0.0000
38.1300	0.0000
38.1400	8.2821
38.1500	8.6184
38.1600	0.0000
38.1700	0.0000
38.1800	0.0000
38.1900	8.2821
38.2000	17.0686
38.2100	0.0000
38.2200	0.0000
38.2300	8.2821
38.2400	8.6184
38.2500	0.0000
38.2600	0.0000
38.2700	0.0000
38.2800	0.0000
38.2900	16.7323
38.3000	0.1682
38.3100	8.2821
38.3200	17.0686
38.3300	0.0000
38.3400	0.0000
38.3500	0.0000
38.3600	0.0000
38.3700	8.2821
38.3800	8.6184
38.3900	8.2821
38.4000	8.6184
38.4100	8.2821
38.4200	8.6184
38.4300	0.0000
38.4400	0.0000
38.4500	0.0000
38.4600	0.0000
38.4700	0.0000
38.4800	8.2821
38.4900	8.6184
38.5000	0.0000
38.5100	0.0000
38.5200	0.0000
38.5300	0.0000
38.5400	0.0000
38.5500	0.0000
38.5600	0.0000
38.5700	0.0000
38.5800	0.0000
38.5900	0.0000
38.6000	0.0000
38.6100	0.0000
38.6200	0.0000
38.6300	0.0000
38.6400	0.0000
38.6500	0.0000
38.6600	0.0000
38.6700	0.0000
38.6800	0.0000
38.6900	8.2821
38.7000	33.6328
38.7100	8.7865
38.7200	0.0000
38.7300	0.0000
38.7400	0.0000
38.7500	0.0000
38.7600	0.0000
38.7700	0.0000
38.7800	0.0000
38.7900	0.0000
38.8000	0.0000
38.8100	0.0000
38.8200	0.0000
38.8300	0.0000
38.8400	0.0000
38.8500	0.0000
38.8600	0.0000
38.8700	0.0000
38.8800	0.0000
38.8900	16.5641
38.9000	17.2368
38.9100	25.0144
38.9200	25.3507
38.9300	0.3363
38.9400	0.0000
38.9500	16.7323
38.9600	0.1682
38.9700	0.0000
38.9800	0.0000
38.9900	0.0000
39.0000	0.0000
39.0100	0.0000
39.0200	16.7323
39.0300	0.1682
39.0400	0.0000
39.0500	0.0000
39.0600	0.0000
39.0700	0.0000
39.0800	0.0000
39.0900	0.0000
39.1000	0.0000
39.1100	0.0000
39.1200	0.0000
39.1300	0.0000
39.1400	0.0000
39.1500	0.0000
39.1600	0.0000
39.1700	0.0000
39.1800	0.0000
39.1900	0.0000
39.2000	8.2821
39.2100	16.9005
39.2200	0.1682
39.2300	0.0000
39.2400	0.0000
39.2500	0.0000
39.2600	16.7323
39.2700	0.1682
39.2800	0.0000
39.2900	0.0000
39.3000	0.0000
39.3100	0.0000
39.3200	0.0000
39.3300	0.0000
39.3400	0.0000
39.3500	0.0000
39.3600	0.0000
39.3700	0.0000
39.3800	0.0000
39.3900	0.0000
39.4000	0.0000
39.4100	16.7323
39.4200	0.1682
39.4300	0.0000
39.4400	16.7323
39.4500	0.1682
39.4600	16.7323
39.4700	0.1682
39.4800	0.0000
39.4900	0.0000
39.5000	0.0000
39.5100	0.0000
39.5200	0.0000
39.5300	0.0000
39.5400	0.0000
39.5500	0.0000
39.5600	0.0000
39.5700	25.1825
39.5800	0.1682
39.5900	0.0000
39.6000	0.0000
39.6100	33.4646
39.6200	0.3363
39.6300	16.7323
39.6400	16.9005
39.6500	16.9005
39.6600	0.1682
39.6700	0.0000
39.6800	0.0000
39.6900	0.0000
39.7000	0.0000
39.7100	24.8454
39.7200	17.4058
39.7300	0.0000
39.7400	0.0000
39.7500	0.0000
39.7600	0.0000
39.7700	0.0000
39.7800	0.0000
39.7900	0.0000
39.8000	0.0000
39.8100	0.0000
39.8200	0.0000
39.8300	0.0000
39.8400	16.5641
39.8500	17.0686
39.8600	0.1682
39.8700	0.0000
39.8800	0.0000
39.8900	16.7323
39.9000	0.1682
39.9100	0.0000
39.9200	8.2821
39.9300	8.6184
39.9400	0.0000
39.9500	0.0000
39.9600	16.7323
39.9700	0.1682
39.9800	0.0000
39.9900	0.0000
40.0000	0.0000
40.0100	0.0000
40.0200	0.0000
40.0300	0.0000
40.0400	0.0000
40.0500	0.0000
40.0600	16.7323
40.0700	16.9005
40.0800	25.0144
40.0900	25.6870
40.1000	0.1682
40.1100	0.0000
40.1200	0.0000
40.1300	0.0000
40.1400	0.0000
40.1500	0.0000
40.1600	0.0000
40.1700	0.0000
40.1800	0.0000
40.1900	0.0000
40.2000	0.0000
40.2100	0.0000
40.2200	0.0000
40.2300	0.0000
40.2400	16.7323
40.2500	17.0686
40.2600	0.0000
40.2700	0.0000
40.2800	25.0144
40.2900	8.7865
40.3000	0.0000
40.3100	16.7323
40.3200	16.9005
40.3300	0.1682
40.3400	0.0000
40.3500	0.0000
40.3600	0.0000
40.3700	8.4502
40.3800	0.0000
40.3900	0.0000
40.4000	0.0000
40.4100	8.2821
40.4200	8.6184
40.4300	0.0000
40.4400	8.2821
40.4500	8.6184
40.4600	8.2821
40.4700	8.6184
40.4800	0.0000
40.4900	25.0144
40.5000	0.3363
40.5100	0.0000
40.5200	0.0000
40.5300	8.2821
40.5400	8.6184
40.5500	8.4502
40.5600	0.0000
40.5700	0.0000
40.5800	0.0000
40.5900	25.1825
40.6000	0.1682
40.6100	0.0000
40.6200	25.1825
40.6300	16.9005
40.6400	0.1682
40.6500	16.5641
40.6600	50.7014
40.6700	0.3363
40.6800	8.2821
40.6900	17.0686
40.7000	0.0000
40.7100	8.2821
40.7200	8.6184
40.7300	8.2821
40.7400	8.6184
40.7500	0.0000
40.7600	0.0000
40.7700	0.0000
40.7800	0.0000
40.7900	0.0000
40.8000	25.1825
40.8100	0.1682
40.8200	0.0000
40.8300	0.0000
40.8400	0.0000
40.8500	8.2821
40.8600	17.0686
40.8700	0.0000
40.8800	0.0000
40.8900	0.0000
40.9000	0.0000
40.9100	0.0000
40.9200	8.2821
40.9300	33.6328
40.9400	8.7865
40.9500	0.0000
40.9600	0.0000
40.9700	0.0000
40.9800	0.0000
40.9900	8.2821
41.0000	16.9005
41.0100	25.3507
41.0200	8.4502
41.0300	25.1825
41.0400	17.0686
41.0500	0.1682
41.0600	0.0000
41.0700	25.0144
41.0800	17.0686
41.0900	8.4502
41.1000	8.6184
41.1100	8.2821
41.1200	16.9005
41.1300	0.1682
41.1400	0.0000
41.1500	0.0000
41.1600	0.0000
41.1700	0.0000
41.1800	8.2821
41.1900	16.9005
41.2000	0.1682
41.2100	0.0000
41.2200	0.0000
41.2300	0.0000
41.2400	50.1960
41.2500	17.4058
41.2600	0.0000
41.2700	41.7458
41.2800	0.5053
41.2900	0.0000
41.3000	0.0000
41.3100	0.0000
41.3200	0.0000
41.3300	8.2821
41.3400	17.0686
41.3500	16.7323
41.3600	0.1682
41.3700	0.0000
41.3800	0.0000
41.3900	8.2821
41.4000	16.9005
41.4100	8.6184
41.4200	8.2821
41.4300	16.9005
41.4400	0.1682
41.4500	0.0000
41.4600	0.0000
41.4700	0.0000
41.4800	8.2821
41.4900	17.0686
41.5000	0.0000
41.5100	25.1825
41.5200	0.1682
41.5300	33.4646
41.5400	8.6184
41.5500	8.6184
41.5600	16.7323
41.5700	8.6184
41.5800	24.8454
41.5900	59.3198
41.6000	0.3363
41.6100	0.0000
41.6200	0.0000
41.6300	0.0000
41.6400	0.0000
41.6500	33.1274
41.6600	25.8560
41.6700	16.9005
41.6800	42.0830
41.6900	17.2368
41.7000	0.0000
41.7100	16.5641
41.7200	17.2368
41.7300	0.0000
41.7400	25.1825
41.7500	25.1825
41.7600	8.6184
41.7700	50.5332
41.7800	17.0686
41.7900	8.6184
41.8000	0.0000
41.8100	16.7323
41.8200	8.6184
41.8300	0.0000
41.8400	16.7323
41.8500	0.1682
41.8600	16.7323
41.8700	0.1682
41.8800	25.0144
41.8900	17.0686
41.9000	25.3507
41.9100	8.4502
41.9200	25.1825
41.9300	17.2368
41.9400	0.0000
41.9500	8.2821
41.9600	8.6184
41.9700	41.9148
41.9800	8.7865
41.9900	41.7458
42.0000	25.6870
42.0100	16.9005
42.0200	25.1825
42.0300	0.3363
42.0400	0.0000
42.0500	16.7323
42.0600	8.6184
42.0700	16.7323
42.0800	41.9148
42.0900	34.1372
42.1000	16.9005
42.1100	0.1682
42.1200	24.8454
42.1300	34.1372
42.1400	16.7323
42.1500	33.6328
42.1600	34.1372
42.1700	25.1825
42.1800	0.3363
42.1900	8.2821
42.2000	8.6184
42.2100	16.7323
42.2200	0.1682
42.2300	16.7323
42.2400	16.9005
42.2500	0.1682
42.2600	0.0000
42.2700	25.0144
42.2800	25.3507
42.2900	17.2368
42.3000	0.0000
42.3100	0.0000
42.3200	16.7323
42.3300	8.6184
42.3400	50.1960
42.3500	8.7865
42.3600	33.4646
42.3700	25.5188
42.3800	25.6870
42.3900	8.2821
42.4000	41.9148
42.4100	0.5053
42.4200	33.1274
42.4300	25.8560
42.4400	42.0830
42.4500	16.9005
42.4600	17.0686
42.4700	33.6328
42.4800	8.7865
42.4900	0.0000
42.5000	24.8454
42.5100	25.8560
42.5200	8.2821
42.5300	33.8009
42.5400	0.1682
42.5500	41.7458
42.5600	0.5053
42.5700	25.0144
42.5800	8.7865
42.5900	25.0144
42.6000	25.5188
42.6100	42.0830
42.6200	41.9148
42.6300	42.4193
42.6400	41.9148
42.6500	84.5023
42.6600	17.5739
42.6700	41.7458
42.6800	33.9691
42.6900	59.3198
42.7000	50.3650
42.7100	8.9556
42.7200	33.8009
42.7300	17.0686
42.7400	8.2821
42.7500	8.6184
42.7600	16.5641
42.7700	25.5188
42.7800	50.1960
42.7900	42.4193
42.8000	58.9834
42.8100	59.4879
42.8200	33.8009
42.8300	92.2790
42.8400	26.1923
42.8500	16.9005
42.8600	25.1825
42.8700	33.6328
42.8800	58.9834
42.8900	34.1372
42.9000	50.5332
42.9100	42.4193
42.9200	75.8839
42.9300	58.9834
42.9400	67.6018
42.9500	50.8695
42.9600	34.1372
42.9700	16.9005
42.9800	33.4646
42.9900	17.2368
43.0000	66.7602
43.0100	34.6426
43.0200	66.9283
43.0300	50.7014
43.0400	51.0377
43.0500	34.1372
43.0600	91.7746
43.0700	93.1207
43.0800	76.3884
43.0900	25.8560
43.1000	41.9148
43.1100	42.7565
43.1200	75.2104
43.1300	85.0076
43.1400	76.0521
43.1500	33.9691
43.1600	100.7293
43.1700	67.7700
43.1800	93.1207
43.1900	84.5023
43.2000	34.4744
43.2100	100.3929
43.2200	42.9246
43.2300	125.9118
43.2400	102.4125
43.2500	75.5467
43.2600	42.5875
43.2700	50.5332
43.2800	109.3476
43.2900	101.4027
43.3000	117.7979
43.3100	77.2300
43.3200	83.9970
43.3300	42.7565
43.3400	100.5611
43.3500	85.1758
43.3600	109.5167
43.3700	59.6569
43.3800	75.3786
43.3900	59.8251
43.4000	58.8153
43.4100	84.1660
43.4200	142.6441
43.4300	102.5807
43.4400	117.9669
43.4500	101.4027
43.4600	126.4171
43.4700	143.6539
43.4800	93.2888
43.4900	135.0355
43.5000	93.2888
43.5100	110.3583
43.5200	33.8009
43.5300	76.0521
43.5400	117.9669
43.5500	101.5709
43.5600	59.1516
43.5700	76.0521
43.5800	92.6162
43.5900	43.0928
43.6000	92.2790
43.6100	150.5890
43.6200	111.5363
43.6300	117.6297
43.6400	85.6802
43.6500	150.5890
43.6600	110.3583
43.6700	160.2180
43.6800	118.8085
43.6900	109.5167
43.7000	84.8386
43.7100	125.9118
43.7200	144.6637
43.7300	109.1795
43.7400	152.1041
43.7500	177.4548
43.7600	168.3311
43.7700	160.8907
43.7800	128.2686
43.7900	75.3786
43.8000	151.7678
43.8100	151.7678
43.8200	169.1727
43.8300	118.8085
43.8400	126.7534
43.8500	201.6275
43.8600	236.2701
43.8700	152.9458
43.8800	244.5513
43.8900	252.8334
43.9000	170.0144
43.9100	185.5687
43.9200	236.1011
43.9300	145.0009
43.9400	194.0189
43.9500	260.4419
43.9600	220.5476
43.9700	254.0122
43.9800	210.0777
43.9900	262.6306
44.0000	236.4382
44.0100	245.5619
44.0200	202.8055
44.0300	253.5069
44.0400	169.5099
44.0500	218.6961
44.0600	161.7323
44.0700	177.6229
44.0800	160.7225
44.0900	201.7957
44.1000	136.0453
44.1100	168.3311
44.1200	286.2980
44.1300	187.4202
44.1400	235.2594
44.1500	354.5733
44.1600	337.6728
44.1700	287.4759
44.1800	162.4058
44.1900	293.0649
44.2000	413.7249
44.2100	263.9767
44.2200	211.0876
44.2300	345.2814
44.2400	304.2082
44.2500	312.6584
44.2600	413.7249
44.2700	397.6660
44.2800	347.8063
44.2900	378.4088
44.3000	431.1298
44.3100	330.4006
44.3200	404.9375
44.3300	446.5151
44.3400	306.3968
44.3500	387.8688
44.3600	289.1592
44.3700	344.6079
44.3800	413.7249
44.3900	364.5378
44.4000	378.9133
44.4100	448.5356
44.4200	472.2030
44.4300	438.0649
44.4400	448.8719
44.4500	424.0265
44.4600	395.6456
44.4700	465.6042
44.4800	564.6502
44.4900	523.0725
44.5000	492.1328
44.5100	447.1886
44.5200	640.7022
44.5300	516.4737
44.5400	474.7279
44.5500	498.2272
44.5600	539.6366
44.5700	600.1343
44.5800	598.7883
44.5900	583.4021
44.6000	566.8388
44.6100	557.2098
44.6200	650.8357
44.6300	641.2076
44.6400	692.2453
44.6500	643.9007
44.6600	676.0183
44.6700	691.2354
44.6800	677.1962
44.6900	800.0786
44.7000	787.2182
44.7100	727.7294
44.7200	826.4391
44.7300	669.2514
44.7400	743.1148
44.7500	843.5077
44.7600	885.7589
44.7700	1030.5915
44.7800	922.2528
44.7900	1046.6504
44.8000	888.1156
44.8100	920.7385
44.8200	1021.9723
44.8300	1156.6714
44.8400	1050.0169
44.8500	1305.9134
44.8600	1251.8118
44.8700	1509.7297
44.8800	1287.2959
44.8900	1341.2295
44.9000	1417.6188
44.9100	1512.7590
44.9200	1438.3903
44.9300	1319.9189
44.9400	1717.6188
44.9500	1706.9461
44.9600	1901.6377
44.9700	1942.5427
44.9800	1710.3128
44.9900	1931.7357
45.0000	2461.7433
45.0100	2248.7706
45.0200	1946.0774
45.0300	2078.5880
45.0400	2448.3776
45.0500	2233.5533
45.0600	2807.6974
45.0700	2769.8236
45.0800	2841.1280
45.0900	3472.4040
45.1000	3115.0712
45.1100	3849.9375
45.1200	4013.3871
45.1300	3834.3502
45.1400	4696.8457
45.1500	4467.9824
45.1600	5613.8131
45.1700	5643.1366
45.1800	5056.3672
45.1900	7123.1722
45.2000	6371.5738
45.2100	8888.8655
45.2200	8420.4339
45.2300	9142.6416
45.2400	12142.6418
45.2500	9451.1255
45.2600	15737.3547
45.2700	11468.3741
45.2800	19203.2285
45.2900	19092.3646
45.3000	21182.7357
45.3100	33246.2289
45.3200	25289.0763
45.3300	53019.1216
45.3400	44636.8334
45.3500	70035.9958
45.3600	105367.6796
45.3700	101271.3076
45.3800	201983.2002
45.3900	252736.1298
45.4000	733055.1293
45.4100	2669653.4382
45.4200	13841898.6340
45.4300	13997350.0907
45.4400	2569269.7429
45.4500	806980.4335
45.4600	269511.7970
45.4700	282000.8219
45.4800	148083.2702
45.4900	117588.0631
45.5000	113467.0419
45.5100	64194.4330
45.5200	78260.0568
45.5300	45925.9471
45.5400	48999.7424
45.5500	44827.4504
45.5600	29401.4080
45.5700	39048.7403
45.5800	26311.6200
45.5900	31138.2167
45.6000	27378.5706
45.6100	23885.7319
45.6200	30189.0638
45.6300	23174.7017
45.6400	30595.4834
45.6500	30513.4032
45.6600	31747.1035
45.6700	43747.3685
45.6800	46465.7838
45.6900	70926.0013
45.7000	105577.5572
45.7100	182720.6571
45.7200	636791.9106
45.7300	9473424.2311
45.7400	6530791.1839
45.7500	452562.8052
45.7600	131887.6649
45.7700	61562.7068
45.7800	37729.4938
45.7900	22100.7140
45.8000	17358.7557
45.8100	12588.5513
45.8200	9252.7978
45.8300	8494.7009
45.8400	5999.3924
45.8500	6249.0950
45.8600	4328.8399
45.8700	4263.7968
45.8800	4129.9730
45.8900	2976.1298
45.9000	3291.0106
45.9100	2478.2737
45.9200	2353.5400
45.9300	2378.9244
45.9400	1857.5013
45.9500	1959.2750
45.9600	1740.7470
45.9700	1653.0125
45.9800	1685.1640
45.9900	1500.7402
46.0000	1494.6806
46.0100	1419.9746
46.0200	1119.3021
46.0300	1192.3238
46.0400	1163.6066
46.0500	923.0945
46.0600	805.1285
46.0700	1060.6887
46.0800	832.4987
46.0900	779.1043
46.1000	852.4633
46.1100	918.8863
46.1200	737.0213
46.1300	693.5922
46.1400	583.7392
46.1500	691.7408
46.1600	634.6088
46.1700	608.5846
46.1800	632.4202
46.1900	485.7031
46.2000	471.3613
46.2100	565.8290
46.2200	465.4360
46.2300	496.8802
46.2400	467.2875
46.2500	347.1328
46.2600	446.8523
46.2700	439.2437
46.2800	380.9338
46.2900	296.7678
46.3000	479.1381
46.3100	248.4232
46.3200	412.3779
46.3300	312.9948
46.3400	320.9405
46.3500	355.2459
46.3600	296.7678
46.3700	344.6079
46.3800	321.7822
46.3900	271.2490
46.4000	286.6343
46.4100	246.0664
46.4200	236.2701
46.4300	370.6321
46.4400	254.5166
46.4500	169.8462
46.4600	261.6208
46.4700	235.5966
46.4800	236.6064
46.4900	279.0257
46.5000	245.8983
46.5100	252.3289
46.5200	246.0664
46.5300	253.3387
46.5400	161.5641
46.5500	218.3590
46.5600	161.7323
46.5700	243.8787
46.5800	178.8018
46.5900	252.3289
46.6000	245.0566
46.6100	219.7059
46.6200	211.5920
46.6300	186.2413
46.6400	228.3243
46.6500	202.3002
46.6600	161.0597
46.6700	185.7369
46.6800	244.8885
46.6900	127.4269
46.7000	218.5280
46.7100	145.3372
46.7200	218.3590
46.7300	169.0046
46.7400	169.8462
46.7500	126.9216
46.7600	142.9804
46.7700	202.6373
46.7800	169.5099
46.7900	85.5121
46.8000	92.2790
46.8100	159.5445
46.8200	202.9736
46.8300	186.0732
46.8400	161.0597
46.8500	126.7534
46.8600	142.9804
46.8700	236.1011
46.8800	220.5476
46.8900	178.2964
46.9000	101.2346
46.9100	126.2481
46.9200	161.0597
46.9300	160.2180
46.9400	93.4578
46.9500	176.7813
46.9600	143.8220
46.9700	118.1350
46.9800	210.5822
46.9900	136.0453
47.0000	93.6260
47.0100	160.0490
47.0200	160.5543
47.0300	93.1207
47.0400	143.4857
47.0500	151.9360
47.0600	135.0355
47.0700	135.2037
47.0800	151.4306
47.0900	210.9194
47.1000	136.7188
47.1100	160.2180
47.1200	135.0355
47.1300	135.0355
47.1400	60.4986
47.1500	159.5445
47.1600	118.6395
47.1700	92.9525
47.1800	118.1350
47.1900	160.3862
47.2000	76.7255
47.2100	134.1938
47.2200	160.2180
47.2300	143.8220
47.2400	135.8771
47.2500	93.1207
47.2600	143.3176
47.2700	134.8673
47.2800	177.2866
47.2900	110.5265
47.3000	68.1072
47.3100	125.7436
47.3200	143.8220
47.3300	93.4578
47.3400	134.6983
47.3500	152.1041
47.3600	60.4986
47.3700	109.0113
47.3800	135.3718
47.3900	92.6162
47.4000	110.0211
47.4100	76.0521
47.4200	68.2753
47.4300	100.5611
47.4400	126.7534
47.4500	135.3718
47.4600	51.2067
47.4700	67.9381
47.4800	58.6463
47.4900	75.7157
47.5000	126.5853
47.5100	68.7798
47.5200	16.5641
47.5300	150.4208
47.5400	52.2165
47.5500	84.1660
47.5600	50.8695
47.5700	109.5167
47.5800	68.1072
47.5900	58.9834
47.6000	67.6018
47.6100	75.8839
47.6200	58.9834
47.6300	84.8386
47.6400	58.8153
47.6500	67.7700
47.6600	151.5988
47.6700	34.8107
47.6800	17.0686
47.6900	17.0686
47.7000	41.5777
47.7100	58.9834
47.7200	50.8695
47.7300	92.7843
47.7400	92.9525
47.7500	42.7565
47.7600	125.4065
47.7700	93.6260
47.7800	101.5709
47.7900	75.8839
47.8000	110.0211
47.8100	42.5875
47.8200	59.1516
47.8300	25.6870
47.8400	75.2104
47.8500	51.3749
47.8600	83.8288
47.8700	25.8560
47.8800	58.8153
47.8900	101.4027
47.9000	25.8560
47.9100	8.6184
47.9200	41.9148
47.9300	75.8839
47.9400	76.0521
47.9500	42.5875
47.9600	100.8974
47.9700	92.9525
47.9800	42.9246
47.9900	58.4781
48.0000	76.0521
48.0100	84.6704
48.0200	67.7700
48.0300	58.9834
48.0400	59.3198
48.0500	33.6328
48.0600	84.3341
48.0700	84.1660
48.0800	84.8386
48.0900	17.5739
48.1000	33.4646
48.1100	75.8839
48.1200	8.9556
48.1300	75.7157
48.1400	33.9691
48.1500	108.8432
48.1600	17.9103
48.1700	75.7157
48.1800	50.7014
48.1900	34.1372
48.2000	75.5467
48.2100	26.1923
48.2200	41.9148
48.2300	33.8009
48.2400	83.9970
48.2500	9.2919
48.2600	25.0144
48.2700	50.8695
48.2800	33.4646
48.2900	51.2067
48.3000	25.0144
48.3100	58.8153
48.3200	34.4744
48.3300	50.1960
48.3400	25.6870
48.3500	50.5332
48.3600	42.2511
48.3700	58.9834
48.3800	42.0830
48.3900	34.1372
48.4000	25.6870
48.4100	41.7458
48.4200	25.8560
48.4300	66.7602
48.4400	34.4744
48.4500	16.9005
48.4600	16.9005
48.4700	41.7458
48.4800	59.1516
48.4900	58.9834
48.5000	50.8695
48.5100	42.4193
48.5200	50.7014
48.5300	58.9834
48.5400	25.6870
48.5500	17.0686
48.5600	33.4646
48.5700	100.7293
48.5800	17.9103
48.5900	33.4646
48.6000	17.4058
48.6100	16.5641
48.6200	25.3507
48.6300	50.3650
48.6400	17.4058
48.6500	25.3507
48.6600	33.6328
48.6700	17.2368
48.6800	0.0000
48.6900	0.0000
48.7000	16.7323
48.7100	25.1825
48.7200	42.0830
48.7300	25.6870
48.7400	25.3507
48.7500	42.0830
48.7600	42.0830
48.7700	25.6870
48.7800	25.3507
48.7900	8.6184
48.8000	8.2821
48.8100	25.1825
48.8200	42.2511
48.8300	25.5188
48.8400	17.0686
48.8500	33.2956
48.8600	25.6870
48.8700	8.6184
48.8800	0.0000
48.8900	33.4646
48.9000	17.2368
48.9100	8.2821
48.9200	25.3507
48.9300	17.0686
48.9400	16.7323
48.9500	16.9005
48.9600	0.1682
48.9700	24.8454
48.9800	42.5875
48.9900	8.4502
49.0000	8.6184
49.0100	8.2821
49.0200	25.3507
49.0300	25.1825
49.0400	25.5188
49.0500	58.4781
49.0600	17.5739
49.0700	16.9005
49.0800	41.9148
49.0900	8.9556
49.1000	8.2821
49.1100	8.6184
49.1200	0.0000
49.1300	16.9005
49.1400	0.0000
49.1500	0.0000
49.1600	0.0000
49.1700	8.2821
49.1800	41.9148
49.1900	8.7865
49.2000	42.0830
49.2100	41.9148
49.2200	42.7565
49.2300	0.1682
49.2400	25.0144
49.2500	8.7865
49.2600	8.2821
49.2700	25.1825
49.2800	0.3363
49.2900	0.0000
49.3000	33.4646
49.3100	8.6184
49.3200	8.6184
49.3300	0.0000
49.3400	8.2821
49.3500	0.1682
49.3600	0.0000
49.3700	0.0000
49.3800	16.7323
49.3900	0.1682
49.4000	25.0144
49.4100	42.0830
49.4200	8.9556
49.4300	8.2821
49.4400	25.1825
49.4500	8.7865
49.4600	16.7323
49.4700	25.1825
49.4800	0.3363
49.4900	16.7323
49.5000	8.4502
49.5100	8.6184
49.5200	0.0000
49.5300	0.0000
49.5400	0.0000
49.5500	16.7323
49.5600	16.7323
49.5700	25.5188
49.5800	0.1682
49.5900	0.0000
49.6000	8.2821
49.6100	8.6184
49.6200	0.0000
49.6300	8.2821
49.6400	16.9005
49.6500	8.4502
49.6600	16.9005
49.6700	16.7323
49.6800	17.0686
49.6900	16.9005
49.7000	16.7323
49.7100	8.7865
49.7200	0.0000
49.7300	0.0000
49.7400	0.0000
49.7500	25.0144
49.7600	8.6184
49.7700	33.6328
49.7800	25.3507
49.7900	0.3363
49.8000	0.0000
49.8100	0.0000
49.8200	0.0000
49.8300	0.0000
49.8400	0.0000
49.8500	0.0000
49.8600	0.0000
49.8700	16.7323
49.8800	8.4502
49.8900	16.9005
49.9000	0.1682
49.9100	0.0000
49.9200	0.0000
49.9300	8.2821
49.9400	8.6184
49.9500	0.0000
49.9600	16.7323
49.9700	16.7323
49.9800	17.0686
49.9900	17.0686
50.0000	0.0000
50.0100	8.2821
50.0200	16.9005
50.0300	0.1682
50.0400	0.0000
50.0500	8.2821
50.0600	8.6184
50.0700	8.2821
50.0800	8.6184
50.0900	0.0000
50.1000	8.2821
50.1100	8.6184
50.1200	0.0000
50.1300	0.0000
50.1400	16.7323
50.1500	17.0686
50.1600	0.0000
50.1700	16.7323
50.1800	0.1682
50.1900	0.0000
50.2000	0.0000
50.2100	0.0000
50.2200	0.0000
50.2300	0.0000
50.2400	0.0000
50.2500	16.7323
50.2600	0.1682
50.2700	0.0000
50.2800	8.2821
50.2900	8.6184
50.3000	8.2821
50.3100	16.9005
50.3200	16.9005
50.3300	0.1682
50.3400	0.0000
50.3500	0.0000
50.3600	0.0000
50.3700	16.7323
50.3800	16.9005
50.3900	0.1682
50.4000	0.0000
50.4100	0.0000
50.4200	8.2821
50.4300	8.6184
50.4400	0.0000
50.4500	0.0000
50.4600	0.0000
50.4700	0.0000
50.4800	0.0000
50.4900	0.0000
50.5000	0.0000
50.5100	0.0000
50.5200	0.0000
50.5300	0.0000
50.5400	16.7323
50.5500	0.1682
50.5600	16.7323
50.5700	0.1682
50.5800	16.9005
50.5900	16.5641
50.6000	17.0686
50.6100	0.1682
50.6200	33.4646
50.6300	0.3363
50.6400	0.0000
50.6500	0.0000
50.6600	0.0000
50.6700	16.7323
50.6800	8.6184
50.6900	8.2821
50.7000	8.6184
50.7100	0.0000
50.7200	0.0000
50.7300	0.0000
50.7400	0.0000
50.7500	0.0000
50.7600	0.0000
50.7700	0.0000
50.7800	0.0000
50.7900	0.0000
50.8000	0.0000
50.8100	0.0000
50.8200	0.0000
50.8300	16.7323
50.8400	41.9148
50.8500	42.5875
50.8600	0.1682
50.8700	0.0000
50.8800	0.0000
50.8900	0.0000
50.9000	0.0000
50.9100	0.0000
50.9200	0.0000
50.9300	25.1825
50.9400	0.1682
50.9500	0.0000
50.9600	0.0000
50.9700	0.0000
50.9800	0.0000
50.9900	0.0000
51.0000	16.7323
51.0100	0.1682
51.0200	0.0000
51.0300	0.0000
51.0400	8.2821
51.0500	8.6184
51.0600	16.7323
51.0700	0.1682
51.0800	8.2821
51.0900	8.6184
51.1000	0.0000
51.1100	0.0000
51.1200	0.0000
51.1300	0.0000
51.1400	0.0000
51.1500	0.0000
51.1600	0.0000
51.1700	16.7323
51.1800	0.1682
51.1900	0.0000
51.2000	25.0144
51.2100	0.3363
51.2200	0.0000
51.2300	33.4646
51.2400	0.3363
51.2500	0.0000
51.2600	0.0000
51.2700	0.0000
51.2800	8.2821
51.2900	16.9005
51.3000	33.6328
51.3100	0.3363
51.3200	8.2821
51.3300	16.9005
51.3400	0.1682
51.3500	0.0000
51.3600	0.0000
51.3700	0.0000
51.3800	0.0000
51.3900	0.0000
51.4000	0.0000
51.4100	0.0000
51.4200	0.0000
51.4300	0.0000
51.4400	0.0000
51.4500	0.0000
51.4600	0.0000
51.4700	0.0000
51.4800	0.0000
51.4900	0.0000
51.5000	0.0000
51.5100	0.0000
51.5200	0.0000
51.5300	0.0000
51.5400	0.0000
51.5500	0.0000
51.5600	0.0000
51.5700	0.0000
51.5800	8.2821
51.5900	8.6184
51.6000	0.0000
51.6100	0.0000
51.6200	0.0000
51.6300	0.0000
51.6400	0.0000
51.6500	16.7323
51.6600	0.1682
51.6700	16.7323
51.6800	16.9005
51.6900	0.1682
51.7000	0.0000
51.7100	0.0000
51.7200	16.7323
51.7300	17.0686
51.7400	0.0000
51.7500	0.0000
51.7600	0.0000
51.7700	0.0000
51.7800	0.0000
51.7900	0.0000
51.8000	0.0000
51.8100	0.0000
51.8200	0.0000
51.8300	0.0000
51.8400	0.0000
51.8500	0.0000
51.8600	8.2821
51.8700	8.6184
51.8800	0.0000
51.8900	0.0000
51.9000	0.0000
51.9100	0.0000
51.9200	16.5641
51.9300	8.7865
51.9400	0.0000
51.9500	8.2821
51.9600	17.0686
51.9700	0.0000
51.9800	0.0000
51.9900	0.0000
52.0000	0.0000
52.0100	0.0000
52.0200	0.0000
52.0300	0.0000
52.0400	0.0000
52.0500	0.0000
52.0600	0.0000
52.0700	0.0000
52.0800	0.0000
52.0900	0.0000
52.1000	8.2821
52.1100	8.6184
52.1200	16.7323
52.1300	8.6184
52.1400	0.0000
52.1500	0.0000
52.1600	0.0000
52.1700	0.0000
52.1800	0.0000
52.1900	0.0000
52.2000	0.0000
52.2100	0.0000
52.2200	0.0000
52.2300	8.2821
52.2400	8.6184
52.2500	33.4646
52.2600	0.3363
52.2700	0.0000
52.2800	0.0000
52.2900	0.0000
52.3000	0.0000
52.3100	0.0000
52.3200	25.0144
52.3300	0.3363
52.3400	0.0000
52.3500	8.2821
52.3600	8.6184
52.3700	0.0000
52.3800	0.0000
52.3900	0.0000
52.4000	0.0000
52.4100	0.0000
52.4200	0.0000
52.4300	0.0000
52.4400	0.0000
52.4500	0.0000
52.4600	0.0000
52.4700	0.0000
52.4800	0.0000
52.4900	0.0000
52.5000	0.0000
52.5100	0.0000
52.5200	0.0000
52.5300	0.0000
52.5400	0.0000
52.5500	0.0000
52.5600	0.0000
52.5700	0.0000
52.5800	0.0000
52.5900	0.0000
52.6000	8.2821
52.6100	8.6184
52.6200	0.0000
52.6300	0.0000
52.6400	0.0000
52.6500	0.0000
52.6600	0.0000
52.6700	0.0000
52.6800	0.0000
52.6900	0.0000
52.7000	0.0000
52.7100	0.0000
52.7200	8.2821
52.7300	8.6184
52.7400	0.0000
52.7500	0.0000
52.7600	0.0000
52.7700	0.0000
52.7800	0.0000
52.7900	8.2821
52.8000	16.9005
52.8100	8.6184
52.8200	0.0000
52.8300	0.0000
52.8400	0.0000
52.8500	0.0000
52.8600	0.0000
52.8700	0.0000
52.8800	0.0000
52.8900	0.0000
52.9000	0.0000
52.9100	0.0000
52.9200	0.0000
52.9300	8.2821
52.9400	16.9005
52.9500	0.1682
52.9600	8.2821
52.9700	8.6184
52.9800	0.0000
52.9900	0.0000
53.0000	0.0000
53.0100	0.0000
53.0200	8.2821
53.0300	8.6184
53.0400	0.0000
53.0500	0.0000
53.0600	16.5641
53.0700	25.3507
53.0800	25.5188
53.0900	0.1682
53.1000	0.0000
53.1100	0.0000
53.1200	0.0000
53.1300	0.0000
53.1400	0.0000
53.1500	0.0000
53.1600	8.2821
53.1700	17.0686
53.1800	0.0000
53.1900	0.0000
53.2000	16.7323
53.2100	16.9005
53.2200	8.6184
53.2300	0.0000
53.2400	0.0000
53.2500	0.0000
53.2600	0.0000
53.2700	0.0000
53.2800	0.0000
53.2900	0.0000
53.3000	8.2821
53.3100	8.6184
53.3200	0.0000
53.3300	0.0000
53.3400	16.5641
53.3500	8.7865
53.3600	0.0000
53.3700	8.2821
53.3800	8.6184
53.3900	0.0000
53.4000	0.0000
53.4100	0.0000
53.4200	8.2821
53.4300	16.9005
53.4400	0.1682
53.4500	0.0000
53.4600	0.0000
53.4700	0.0000
53.4800	0.0000
53.4900	0.0000
53.5000	0.0000
53.5100	0.0000
53.5200	0.0000
53.5300	0.0000
53.5400	8.2821
53.5500	8.6184
53.5600	0.0000
53.5700	0.0000
53.5800	16.7323
53.5900	0.1682
53.6000	0.0000
53.6100	0.0000
53.6200	0.0000
53.6300	8.2821
53.6400	16.9005
53.6500	16.9005
53.6600	16.9005
53.6700	0.1682
53.6800	8.2821
53.6900	8.6184
53.7000	0.0000
53.7100	0.0000
53.7200	0.0000
53.7300	0.0000
53.7400	0.0000
53.7500	8.2821
53.7600	8.6184
53.7700	0.0000
53.7800	0.0000
53.7900	0.0000
53.8000	0.0000
53.8100	0.0000
53.8200	0.0000
53.8300	0.0000
53.8400	0.0000
53.8500	8.2821
53.8600	8.6184
53.8700	0.0000
53.8800	0.0000
53.8900	16.7323
53.9000	0.1682
53.9100	0.0000
53.9200	0.0000
53.9300	0.0000
53.9400	0.0000
53.9500	0.0000
53.9600	0.0000
53.9700	0.0000
53.9800	0.0000
53.9900	0.0000
54.0000	0.0000
54.0100	16.7323
54.0200	0.1682
54.0300	0.0000
54.0400	0.0000
54.0500	0.0000
54.0600	0.0000
54.0700	0.0000
54.0800	16.7323
54.0900	0.1682
54.1000	0.0000
54.1100	0.0000
54.1200	0.0000
54.1300	0.0000
54.1400	0.0000
54.1500	0.0000
54.1600	0.0000
54.1700	0.0000
54.1800	25.0144
54.1900	0.3363
54.2000	0.0000
54.2100	0.0000
54.2200	0.0000
54.2300	0.0000
54.2400	0.0000
54.2500	0.0000
54.2600	8.2821
54.2700	8.6184
54.2800	0.0000
54.2900	8.2821
54.3000	16.9005
54.3100	8.6184
54.3200	8.2821
54.3300	8.6184
54.3400	16.5641
54.3500	8.7865
54.3600	0.0000
54.3700	0.0000
54.3800	0.0000
54.3900	0.0000
54.4000	25.1825
54.4100	8.4502
54.4200	17.0686
54.4300	0.0000
54.4400	0.0000
54.4500	0.0000
54.4600	0.0000
54.4700	0.0000
54.4800	0.0000
54.4900	0.0000
54.5000	0.0000
54.5100	0.0000
54.5200	0.0000
54.5300	0.0000
54.5400	0.0000
54.5500	0.0000
54.5600	16.7323
54.5700	0.1682
54.5800	0.0000
54.5900	0.0000
54.6000	0.0000
54.6100	0.0000
54.6200	0.0000
54.6300	0.0000
54.6400	0.0000
54.6500	0.0000
54.6600	0.0000
54.6700	0.0000
54.6800	0.0000
54.6900	0.0000
54.7000	25.1825
54.7100	0.1682
54.7200	16.7323
54.7300	0.1682
54.7400	0.0000
54.7500	16.7323
54.7600	8.6184
54.7700	0.0000
54.7800	0.0000
54.7900	8.2821
54.8000	25.3507
54.8100	8.6184
54.8200	0.0000
54.8300	8.2821
54.8400	16.9005
54.8500	0.1682
54.8600	0.0000
54.8700	0.0000
54.8800	0.0000
54.8900	0.0000
54.9000	0.0000
54.9100	0.0000
54.9200	0.0000
54.9300	0.0000
54.9400	0.0000
54.9500	16.7323
54.9600	8.6184
54.9700	0.0000
54.9800	25.0144
54.9900	8.7865
55.0000	0.0000
55.0100	8.2821
55.0200	8.6184
55.0300	0.0000
55.0400	8.2821
55.0500	8.6184
55.0600	0.0000
55.0700	0.0000
55.0800	0.0000
55.0900	0.0000
55.1000	0.0000
55.1100	0.0000
55.1200	0.0000
55.1300	0.0000
55.1400	0.0000
55.1500	0.0000
55.1600	0.0000
55.1700	0.0000
55.1800	0.0000
55.1900	0.0000
55.2000	0.0000
55.2100	0.0000
55.2200	0.0000
55.2300	0.0000
55.2400	0.0000
55.2500	0.0000
55.2600	0.0000
55.2700	0.0000
55.2800	0.0000
55.2900	0.0000
55.3000	0.0000
55.3100	16.7323
55.3200	0.1682
55.3300	0.0000
55.3400	0.0000
55.3500	0.0000
55.3600	0.0000
55.3700	0.0000
55.3800	0.0000
55.3900	0.0000
55.4000	0.0000
55.4100	0.0000
55.4200	0.0000
55.4300	16.7323
55.4400	0.1682
55.4500	0.0000
55.4600	0.0000
55.4700	0.0000
55.4800	0.0000
55.4900	16.5641
55.5000	8.7865
55.5100	0.0000
55.5200	0.0000
55.5300	0.0000
55.5400	0.0000
55.5500	0.0000
55.5600	0.0000
55.5700	0.0000
55.5800	0.0000
55.5900	0.0000
55.6000	0.0000
55.6100	0.0000
55.6200	0.0000
55.6300	0.0000
55.6400	0.0000
55.6500	0.0000
55.6600	0.0000
55.6700	0.0000
55.6800	16.5641
55.6900	17.0686
55.7000	0.1682
55.7100	0.0000
55.7200	0.0000
55.7300	0.0000
55.7400	0.0000
55.7500	0.0000
55.7600	0.0000
55.7700	0.0000
55.7800	0.0000
55.7900	0.0000
55.8000	0.0000
55.8100	0.0000
55.8200	0.0000
55.8300	0.0000
55.8400	0.0000
55.8500	16.5641
55.8600	8.7865
55.8700	0.0000
55.8800	8.2821
55.8900	8.6184
55.9000	0.0000
55.9100	0.0000
55.9200	0.0000
55.9300	0.0000
55.9400	0.0000
55.9500	0.0000
55.9600	0.0000
55.9700	0.0000
55.9800	0.0000
55.9900	0.0000
56.0000	0.0000
56.0100	0.0000
56.0200	0.0000
56.0300	0.0000
56.0400	0.0000
56.0500	0.0000
56.0600	0.0000
56.0700	0.0000
56.0800	16.7323
56.0900	0.1682
56.1000	0.0000
56.1100	0.0000
56.1200	0.0000
56.1300	0.0000
56.1400	0.0000
56.1500	0.0000
56.1600	0.0000
56.1700	0.0000
56.1800	0.0000
56.1900	0.0000
56.2000	0.0000
56.2100	0.0000
56.2200	0.0000
56.2300	0.0000
56.2400	0.0000
56.2500	0.0000
56.2600	0.0000
56.2700	0.0000
56.2800	0.0000
56.2900	8.2821
56.3000	25.1825
56.3100	17.2368
56.3200	0.0000
56.3300	0.0000
56.3400	8.2821
56.3500	25.3507
56.3600	8.6184
56.3700	0.0000
56.3800	0.0000
56.3900	0.0000
56.4000	0.0000
56.4100	0.0000
56.4200	0.0000
56.4300	0.0000
56.4400	0.0000
56.4500	0.0000
56.4600	0.0000
56.4700	0.0000
56.4800	0.0000
56.4900	16.5641
56.5000	17.0686
56.5100	0.1682
56.5200	0.0000
56.5300	0.0000
56.5400	8.2821
56.5500	8.6184
56.5600	0.0000
56.5700	0.0000
56.5800	0.0000
56.5900	8.2821
56.6000	16.9005
56.6100	8.6184
56.6200	0.0000
56.6300	0.0000
56.6400	0.0000
56.6500	0.0000
56.6600	0.0000
56.6700	0.0000
56.6800	0.0000
56.6900	0.0000
56.7000	0.0000
56.7100	0.0000
56.7200	0.0000
56.7300	0.0000
56.7400	8.2821
56.7500	16.9005
56.7600	0.1682
56.7700	8.2821
56.7800	8.6184
56.7900	0.0000
56.8000	0.0000
56.8100	0.0000
56.8200	0.0000
56.8300	8.4502
56.8400	0.0000
56.8500	0.0000
56.8600	0.0000
56.8700	0.0000
56.8800	0.0000
56.8900	0.0000
56.9000	0.0000
56.9100	0.0000
56.9200	0.0000
56.9300	0.0000
56.9400	0.0000
56.9500	0.0000
56.9600	8.2821
56.9700	17.0686
56.9800	16.7323
56.9900	16.9005
57.0000	8.4502
57.0100	8.6184
57.0200	16.5641
57.0300	8.7865
57.0400	16.7323
57.0500	16.9005
57.0600	0.1682
57.0700	0.0000
57.0800	0.0000
57.0900	16.7323
57.1000	25.3507
57.1100	8.6184
57.1200	0.0000
57.1300	0.0000
57.1400	0.0000
57.1500	0.0000
57.1600	0.0000
57.1700	0.0000
57.1800	0.0000
57.1900	0.0000
57.2000	0.0000
57.2100	0.0000
57.2200	0.0000
57.2300	0.0000
57.2400	0.0000
57.2500	0.0000
57.2600	0.0000
57.2700	0.0000
57.2800	8.2821
57.2900	8.6184
57.3000	0.0000
57.3100	0.0000
57.3200	8.2821
57.3300	8.6184
57.3400	0.0000
57.3500	0.0000
57.3600	0.0000
57.3700	0.0000
57.3800	16.7323
57.3900	8.4502
57.4000	8.6184
57.4100	0.0000
57.4200	0.0000
57.4300	0.0000
57.4400	16.7323
57.4500	0.1682
57.4600	16.7323
57.4700	0.1682
57.4800	0.0000
57.4900	0.0000
57.5000	0.0000
57.5100	0.0000
57.5200	0.0000
57.5300	0.0000
57.5400	0.0000
57.5500	0.0000
57.5600	0.0000
57.5700	0.0000
57.5800	0.0000
57.5900	16.7323
57.6000	0.1682
57.6100	0.0000
57.6200	0.0000
57.6300	0.0000
57.6400	0.0000
57.6500	0.0000
57.6600	0.0000
57.6700	0.0000
57.6800	0.0000
57.6900	0.0000
57.7000	0.0000
57.7100	0.0000
57.7200	0.0000
57.7300	0.0000
57.7400	0.0000
57.7500	0.0000
57.7600	8.2821
57.7700	0.1682
57.7800	0.0000
57.7900	0.0000
57.8000	0.0000
57.8100	0.0000
57.8200	0.0000
57.8300	0.0000
57.8400	16.7323
57.8500	8.4502
57.8600	8.6184
57.8700	0.0000
57.8800	0.0000
57.8900	0.0000
57.9000	0.0000
57.9100	0.0000
57.9200	16.7323
57.9300	0.1682
57.9400	0.0000
57.9500	0.0000
57.9600	0.0000
57.9700	0.0000
57.9800	0.0000
57.9900	0.0000
58.0000	0.0000
58.0100	0.0000
58.0200	0.0000
58.0300	0.0000
58.0400	0.0000
58.0500	0.0000
58.0600	0.0000
58.0700	0.0000
58.0800	0.0000
58.0900	0.0000
58.1000	0.0000
58.1100	0.0000
58.1200	0.0000
58.1300	0.0000
58.1400	0.0000
58.1500	0.0000
58.1600	0.0000
58.1700	0.0000
58.1800	0.0000
58.1900	0.0000
58.2000	0.0000
58.2100	8.2821
58.2200	8.6184
58.2300	0.0000
58.2400	0.0000
58.2500	8.2821
58.2600	17.0686
58.2700	0.0000
58.2800	0.0000
58.2900	0.0000
58.3000	0.0000
58.3100	0.0000
58.3200	0.0000
58.3300	0.0000
58.3400	0.0000
58.3500	0.0000
58.3600	0.0000
58.3700	0.0000
58.3800	0.0000
58.3900	0.0000
58.4000	8.2821
58.4100	8.6184
58.4200	0.0000
58.4300	0.0000
58.4400	0.0000
58.4500	0.0000
58.4600	0.0000
58.4700	0.0000
58.4800	0.0000
58.4900	25.0144
58.5000	0.3363
58.5100	0.0000
58.5200	0.0000
58.5300	0.0000
58.5400	0.0000
58.5500	0.0000
58.5600	0.0000
58.5700	0.0000
58.5800	0.0000
58.5900	0.0000
58.6000	0.0000
58.6100	0.0000
58.6200	0.0000
58.6300	0.0000
58.6400	0.0000
58.6500	0.0000
58.6600	0.0000
58.6700	0.0000
58.6800	0.0000
58.6900	16.5641
58.7000	8.7865
58.7100	0.0000
58.7200	0.0000
58.7300	0.0000
58.7400	0.0000
58.7500	0.0000
58.7600	0.0000
58.7700	0.0000
58.7800	0.0000
58.7900	25.1825
58.8000	0.1682
58.8100	0.0000
58.8200	0.0000
58.8300	8.2821
58.8400	8.6184
58.8500	0.0000
58.8600	0.0000
58.8700	0.0000
58.8800	0.0000
58.8900	0.0000
58.9000	16.7323
58.9100	0.1682
58.9200	0.0000
58.9300	0.0000
58.9400	0.0000
58.9500	0.0000
58.9600	0.0000
58.9700	16.7323
58.9800	0.1682
58.9900	0.0000
59.0000	0.0000
59.0100	0.0000
59.0200	0.0000
59.0300	0.0000
59.0400	0.0000
59.0500	0.0000
59.0600	0.0000
59.0700	0.0000
59.0800	0.0000
59.0900	0.0000
59.1000	0.0000
59.1100	8.2821
59.1200	8.6184
59.1300	0.0000
59.1400	0.0000
59.1500	0.0000
59.1600	0.0000
59.1700	0.0000
59.1800	0.0000
59.1900	0.0000
59.2000	8.2821
59.2100	8.6184
59.2200	0.0000
59.2300	0.0000
59.2400	0.0000
59.2500	8.2821
59.2600	8.6184
59.2700	0.0000
59.2800	0.0000
59.2900	0.0000
59.3000	0.0000
59.3100	0.0000
59.3200	0.0000
59.3300	0.0000
59.3400	16.7323
59.3500	0.1682
59.3600	0.0000
59.3700	0.0000
59.3800	16.7323
59.3900	8.6184
59.4000	0.0000
59.4100	0.0000
59.4200	0.0000
59.4300	8.2821
59.4400	8.6184
59.4500	0.0000
59.4600	0.0000
59.4700	16.7323
59.4800	0.1682
59.4900	0.0000
59.5000	0.0000
59.5100	0.0000
59.5200	0.0000
59.5300	0.0000
59.5400	0.0000
59.5500	0.0000
59.5600	0.0000
59.5700	0.0000
59.5800	0.0000
59.5900	8.2821
59.6000	25.3507
59.6100	0.1682
59.6200	0.0000
59.6300	0.0000
59.6400	0.0000
59.6500	0.0000
59.6600	8.2821
59.6700	17.0686
59.6800	0.0000
59.6900	0.0000
59.7000	0.0000
59.7100	16.7323
59.7200	8.6184
59.7300	0.0000
59.7400	0.0000
59.7500	0.0000
59.7600	0.0000
59.7700	0.0000
59.7800	0.0000
59.7900	0.0000
59.8000	8.2821
59.8100	33.6328
59.8200	8.7865
59.8300	0.0000
59.8400	0.0000
59.8500	0.0000
59.8600	0.0000
59.8700	0.0000
59.8800	0.0000
59.8900	0.0000
59.9000	0.0000
59.9100	0.0000
59.9200	0.0000
59.9300	0.0000
59.9400	0.0000
59.9500	0.0000
59.9600	0.0000
59.9700	0.0000
59.9800	0.0000
59.9900	16.7323
60.0000	8.6184
60.0100	0.0000
60.0200	25.1825
60.0300	0.1682
60.0400	16.7323
60.0500	0.1682
60.0600	0.0000
60.0700	0.0000
60.0800	0.0000
60.0900	0.0000
60.1000	8.2821
60.1100	25.1825
60.1200	17.0686
60.1300	8.6184
60.1400	8.2821
60.1500	25.1825
60.1600	0.3363
60.1700	0.0000
60.1800	0.0000
60.1900	0.0000
60.2000	0.0000
60.2100	0.0000
60.2200	0.0000
60.2300	0.0000
60.2400	0.0000
60.2500	0.0000
60.2600	0.0000
60.2700	0.0000
60.2800	0.0000
60.2900	8.2821
60.3000	25.1825
60.3100	8.7865
60.3200	0.0000
60.3300	0.0000
60.3400	0.0000
60.3500	0.0000
60.3600	16.7323
60.3700	0.1682
60.3800	8.2821
60.3900	8.6184
60.4000	0.0000
60.4100	0.0000
60.4200	0.0000
60.4300	0.0000
60.4400	0.0000
60.4500	0.0000
60.4600	0.0000
60.4700	0.0000
60.4800	0.0000
60.4900	0.0000
60.5000	0.0000
60.5100	0.0000
60.5200	0.0000
60.5300	0.0000
60.5400	0.0000
60.5500	0.0000
60.5600	0.0000
60.5700	0.0000
60.5800	16.7323
60.5900	8.6184
60.6000	8.2821
60.6100	8.6184
60.6200	0.0000
60.6300	0.0000
60.6400	0.0000
60.6500	0.0000
60.6600	0.0000
60.6700	0.0000
60.6800	0.0000
60.6900	0.0000
60.7000	0.0000
60.7100	0.0000
60.7200	0.0000
60.7300	0.0000
60.7400	0.0000
60.7500	16.7323
60.7600	16.9005
60.7700	17.0686
60.7800	0.0000
60.7900	0.0000
60.8000	0.0000
60.8100	0.0000
60.8200	8.4502
60.8300	0.0000
60.8400	0.0000
60.8500	0.0000
60.8600	0.0000
60.8700	0.0000
60.8800	0.0000
60.8900	0.0000
60.9000	0.0000
60.9100	0.0000
60.9200	0.0000
60.9300	0.0000
60.9400	0.0000
60.9500	0.0000
60.9600	16.7323
60.9700	8.6184
60.9800	0.0000
60.9900	0.0000
61.0000	0.0000
61.0100	0.0000
61.0200	0.0000
61.0300	0.0000
61.0400	8.2821
61.0500	33.8009
61.0600	8.4502
61.0700	8.6184
61.0800	0.0000
61.0900	0.0000
61.1000	0.0000
61.1100	0.0000
61.1200	0.0000
61.1300	0.0000
61.1400	0.0000
61.1500	0.0000
61.1600	0.0000
61.1700	0.0000
61.1800	16.7323
61.1900	0.1682
61.2000	0.0000
61.2100	0.0000
61.2200	0.0000
61.2300	0.0000
61.2400	0.0000
61.2500	0.0000
61.2600	0.0000
61.2700	0.0000
61.2800	0.0000
61.2900	0.0000
61.3000	0.0000
61.3100	0.0000
61.3200	8.2821
61.3300	8.6184
61.3400	0.0000
61.3500	0.0000
61.3600	25.1825
61.3700	0.1682
61.3800	0.0000
61.3900	0.0000
61.4000	0.0000
61.4100	25.0144
61.4200	0.3363
61.4300	0.0000
61.4400	16.7323
61.4500	0.1682
61.4600	0.0000
61.4700	0.0000
61.4800	0.0000
61.4900	0.0000
61.5000	0.0000
61.5100	0.0000
61.5200	16.7323
61.5300	16.9005
61.5400	0.1682
61.5500	0.0000
61.5600	16.7323
61.5700	0.1682
61.5800	16.7323
61.5900	17.0686
61.6000	0.0000
61.6100	0.0000
61.6200	0.0000
61.6300	0.0000
61.6400	0.0000
61.6500	0.0000
61.6600	0.0000
61.6700	0.0000
61.6800	0.0000
61.6900	0.0000
61.7000	0.0000
61.7100	0.0000
61.7200	0.0000
61.7300	0.0000
61.7400	0.0000
61.7500	16.7323
61.7600	8.4502
61.7700	8.6184
61.7800	0.0000
61.7900	8.2821
61.8000	8.6184
61.8100	0.0000
61.8200	0.0000
61.8300	25.1825
61.8400	0.1682
61.8500	0.0000
61.8600	16.7323
61.8700	16.9005
61.8800	33.6328
61.8900	0.3363
61.9000	25.0144
61.9100	0.3363
61.9200	0.0000
61.9300	0.0000
61.9400	0.0000
61.9500	0.0000
61.9600	0.0000
61.9700	0.0000
61.9800	16.7323
61.9900	0.1682
62.0000	0.0000
62.0100	0.0000
62.0200	0.0000
62.0300	0.0000
62.0400	0.0000
62.0500	0.0000
62.0600	0.0000
62.0700	0.0000
62.0800	16.5641
62.0900	17.0686
62.1000	16.9005
62.1100	0.1682
62.1200	0.0000
62.1300	0.0000
62.1400	0.0000
62.1500	0.0000
62.1600	25.1825
62.1700	0.1682
62.1800	0.0000
62.1900	16.5641
62.2000	17.2368
62.2100	0.0000
62.2200	16.7323
62.2300	8.6184
62.2400	16.7323
62.2500	0.1682
62.2600	0.0000
62.2700	0.0000
62.2800	0.0000
62.2900	0.0000
62.3000	0.0000
62.3100	0.0000
62.3200	0.0000
62.3300	16.7323
62.3400	0.1682
62.3500	0.0000
62.3600	0.0000
62.3700	0.0000
62.3800	0.0000
62.3900	0.0000
62.4000	0.0000
62.4100	0.0000
62.4200	0.0000
62.4300	0.0000
62.4400	0.0000
62.4500	0.0000
62.4600	0.0000
62.4700	0.0000
62.4800	0.0000
62.4900	0.0000
62.5000	0.0000
62.5100	0.0000
62.5200	0.0000
62.5300	0.0000
62.5400	0.0000
62.5500	0.0000
62.5600	0.0000
62.5700	0.0000
62.5800	0.0000
62.5900	0.0000
62.6000	0.0000
62.6100	0.0000
62.6200	0.0000
62.6300	0.0000
62.6400	0.0000
62.6500	8.2821
62.6600	8.6184
62.6700	16.7323
62.6800	8.6184
62.6900	0.0000
62.7000	0.0000
62.7100	0.0000
62.7200	0.0000
62.7300	0.0000
62.7400	0.0000
62.7500	0.0000
62.7600	16.7323
62.7700	0.1682
62.7800	0.0000
62.7900	0.0000
62.8000	0.0000
62.8100	0.0000
62.8200	0.0000
62.8300	0.0000
62.8400	0.0000
62.8500	0.0000
62.8600	0.0000
62.8700	0.0000
62.8800	0.0000
62.8900	0.0000
62.9000	0.0000
62.9100	0.0000
62.9200	0.0000
62.9300	0.0000
62.9400	0.0000
62.9500	0.0000
62.9600	0.0000
62.9700	0.0000
62.9800	0.0000
62.9900	0.0000
63.0000	0.0000
63.0100	0.0000
63.0200	0.0000
63.0300	25.0144
63.0400	8.7865
63.0500	16.7323
63.0600	0.1682
63.0700	0.0000
63.0800	8.2821
63.0900	8.6184
63.1000	0.0000
63.1100	0.0000
63.1200	0.0000
63.1300	8.2821
63.1400	8.6184
63.1500	0.0000
63.1600	0.0000
63.1700	0.0000
63.1800	0.0000
63.1900	0.0000
63.2000	0.0000
63.2100	0.0000
63.2200	0.0000
63.2300	0.0000
63.2400	16.7323
63.2500	0.1682
63.2600	0.0000
63.2700	0.0000
63.2800	0.0000
63.2900	0.0000
63.3000	0.0000
63.3100	0.0000
63.3200	0.0000
63.3300	0.0000
63.3400	0.0000
63.3500	16.5641
63.3600	17.0686
63.3700	0.1682
63.3800	0.0000
63.3900	0.0000
63.4000	0.0000
63.4100	0.0000
63.4200	0.0000
63.4300	0.0000
63.4400	0.0000
63.4500	0.0000
63.4600	0.0000
63.4700	8.2821
63.4800	8.6184
63.4900	0.0000
63.5000	0.0000
63.5100	0.0000
63.5200	16.7323
63.5300	17.0686
63.5400	0.0000
63.5500	0.0000
63.5600	0.0000
63.5700	0.0000
63.5800	0.0000
63.5900	16.7323
63.6000	16.9005
63.6100	8.6184
63.6200	0.0000
63.6300	0.0000
63.6400	0.0000
63.6500	0.0000
63.6600	8.2821
63.6700	16.9005
63.6800	8.6184
63.6900	8.2821
63.7000	8.6184
63.7100	0.0000
63.7200	16.7323
63.7300	0.1682
63.7400	0.0000
63.7500	0.0000
63.7600	0.0000
63.7700	16.7323
63.7800	0.1682
63.7900	0.0000
63.8000	0.0000
63.8100	0.0000
63.8200	0.0000
63.8300	0.0000
63.8400	0.0000
63.8500	0.0000
63.8600	0.0000
63.8700	0.0000
63.8800	0.0000
63.8900	0.0000
63.9000	0.0000
63.9100	0.0000
63.9200	0.0000
63.9300	0.0000
63.9400	0.0000
63.9500	0.0000
63.9600	0.0000
63.9700	0.0000
63.9800	0.0000
63.9900	0.0000
64.0000	0.0000
64.0100	0.0000
64.0200	0.0000
64.0300	0.0000
64.0400	0.0000
64.0500	0.0000
64.0600	0.0000
64.0700	0.0000
64.0800	0.0000
64.0900	8.2821
64.1000	8.6184
64.1100	0.0000
64.1200	8.2821
64.1300	8.6184
64.1400	0.0000
64.1500	25.0144
64.1600	0.3363
64.1700	16.7323
64.1800	8.6184
64.1900	0.0000
64.2000	0.0000
64.2100	0.0000
64.2200	25.0144
64.2300	0.3363
64.2400	0.0000
64.2500	0.0000
64.2600	0.0000
64.2700	8.2821
64.2800	8.6184
64.2900	0.0000
64.3000	0.0000
64.3100	0.0000
64.3200	16.5641
64.3300	17.0686
64.3400	0.1682
64.3500	0.0000
64.3600	0.0000
64.3700	0.0000
64.3800	16.5641
64.3900	25.5188
64.4000	0.1682
64.4100	0.0000
64.4200	16.5641
64.4300	8.7865
64.4400	25.0144
64.4500	0.3363
64.4600	0.0000
64.4700	0.0000
64.4800	0.0000
64.4900	0.0000
64.5000	0.0000
64.5100	0.0000
64.5200	0.0000
64.5300	0.0000
64.5400	0.0000
64.5500	0.0000
64.5600	0.0000
64.5700	16.7323
64.5800	0.1682
64.5900	0.0000
64.6000	8.2821
64.6100	8.6184
64.6200	0.0000
64.6300	0.0000
64.6400	0.0000
64.6500	25.0144
64.6600	0.3363
64.6700	0.0000
64.6800	0.0000
64.6900	0.0000
64.7000	0.0000
64.7100	0.0000
64.7200	0.0000
64.7300	0.0000
64.7400	0.0000
64.7500	0.0000
64.7600	25.0144
64.7700	8.6184
64.7800	8.6184
64.7900	25.0144
64.8000	8.7865
64.8100	0.0000
64.8200	0.0000
64.8300	0.0000
64.8400	0.0000
64.8500	0.0000
64.8600	16.5641
64.8700	17.0686
64.8800	0.1682
64.8900	0.0000
64.9000	0.0000
64.9100	8.2821
64.9200	8.6184
64.9300	0.0000
64.9400	0.0000
64.9500	8.2821
64.9600	8.6184
64.9700	0.0000
64.9800	0.0000
64.9900	16.7323
65.0000	0.1682
65.0100	0.0000
65.0200	0.0000
65.0300	0.0000
65.0400	0.0000
65.0500	0.0000
65.0600	0.0000
65.0700	25.1825
65.0800	0.1682
65.0900	0.0000
65.1000	0.0000
65.1100	0.0000
65.1200	0.0000
65.1300	0.0000
65.1400	8.2821
65.1500	16.9005
65.1600	0.1682
65.1700	0.0000
65.1800	0.0000
65.1900	0.0000
65.2000	0.0000
65.2100	0.0000
65.2200	0.0000
65.2300	0.0000
65.2400	0.0000
65.2500	0.0000
65.2600	0.0000
65.2700	0.0000
65.2800	0.0000
65.2900	0.0000
65.3000	0.0000
65.3100	16.7323
65.3200	0.1682
65.3300	0.0000
65.3400	0.0000
65.3500	0.0000
65.3600	0.0000
65.3700	0.0000
65.3800	0.0000
65.3900	0.0000
65.4000	0.0000
65.4100	25.1825
65.4200	0.1682
65.4300	0.0000
65.4400	0.0000
65.4500	0.0000
65.4600	0.0000
65.4700	0.0000
65.4800	0.0000
65.4900	0.0000
65.5000	0.0000
65.5100	0.0000
65.5200	0.0000
65.5300	16.7323
65.5400	17.0686
65.5500	0.0000
65.5600	16.7323
65.5700	0.1682
65.5800	0.0000
65.5900	0.0000
65.6000	0.0000
65.6100	0.0000
65.6200	0.0000
65.6300	0.0000
65.6400	25.0144
65.6500	8.6184
65.6600	16.9005
65.6700	0.1682
65.6800	0.0000
65.6900	0.0000
65.7000	0.0000
65.7100	0.0000
65.7200	0.0000
65.7300	0.0000
65.7400	16.7323
65.7500	41.9148
65.7600	0.5053
65.7700	0.0000
65.7800	0.0000
65.7900	0.0000
65.8000	0.0000
65.8100	0.0000
65.8200	0.0000
65.8300	0.0000
65.8400	16.7323
65.8500	17.0686
65.8600	0.0000
65.8700	0.0000
65.8800	0.0000
65.8900	0.0000
65.9000	0.0000
65.9100	0.0000
65.9200	0.0000
65.9300	0.0000
65.9400	0.0000
65.9500	0.0000
65.9600	0.0000
65.9700	0.0000
65.9800	0.0000
65.9900	0.0000
66.0000	0.0000
66.0100	0.0000
66.0200	0.0000
66.0300	0.0000
66.0400	0.0000
66.0500	0.0000
66.0600	8.2821
66.0700	16.9005
66.0800	8.6184
66.0900	0.0000
66.1000	0.0000
66.1100	0.0000
66.1200	0.0000
66.1300	0.0000
66.1400	0.0000
66.1500	16.5641
66.1600	8.7865
66.1700	0.0000
66.1800	0.0000
66.1900	0.0000
66.2000	0.0000
66.2100	0.0000
66.2200	0.0000
66.2300	0.0000
66.2400	16.7323
66.2500	0.1682
66.2600	0.0000
66.2700	16.7323
66.2800	0.1682
66.2900	16.7323
66.3000	0.1682
66.3100	0.0000
66.3200	0.0000
66.3300	0.0000
66.3400	0.0000
66.3500	0.0000
66.3600	0.0000
66.3700	0.0000
66.3800	16.7323
66.3900	0.1682
66.4000	16.7323
66.4100	17.0686
66.4200	0.0000
66.4300	0.0000
66.4400	0.0000
66.4500	8.2821
66.4600	8.6184
66.4700	16.7323
66.4800	8.4502
66.4900	8.6184
66.5000	0.0000
66.5100	0.0000
66.5200	0.0000
66.5300	0.0000
66.5400	0.0000
66.5500	0.0000
66.5600	0.0000
66.5700	25.0144
66.5800	0.3363
66.5900	0.0000
66.6000	8.2821
66.6100	16.9005
66.6200	0.1682
66.6300	0.0000
66.6400	8.2821
66.6500	8.6184
66.6600	0.0000
66.6700	0.0000
66.6800	0.0000
66.6900	0.0000
66.7000	16.7323
66.7100	0.1682
66.7200	0.0000
66.7300	0.0000
66.7400	16.7323
66.7500	0.1682
66.7600	0.0000
66.7700	0.0000
66.7800	0.0000
66.7900	0.0000
66.8000	0.0000
66.8100	0.0000
66.8200	0.0000
66.8300	8.2821
66.8400	33.8009
66.8500	8.6184
66.8600	0.0000
66.8700	0.0000
66.8800	0.0000
66.8900	0.0000
66.9000	0.0000
66.9100	0.0000
66.9200	0.0000
66.9300	0.0000
66.9400	0.0000
66.9500	0.0000
66.9600	0.0000
66.9700	0.0000
66.9800	0.0000
66.9900	0.0000
67.0000	0.0000
67.0100	0.0000
67.0200	8.2821
67.0300	8.6184
67.0400	0.0000
67.0500	0.0000
67.0600	0.0000
67.0700	16.7323
67.0800	8.6184
67.0900	0.0000
67.1000	25.0144
67.1100	16.9005
67.1200	17.0686
67.1300	8.4502
67.1400	25.1825
67.1500	0.3363
67.1600	0.0000
67.1700	25.1825
67.1800	0.1682
67.1900	0.0000
67.2000	0.0000
67.2100	8.2821
67.2200	8.6184
67.2300	0.0000
67.2400	0.0000
67.2500	0.0000
67.2600	0.0000
67.2700	0.0000
67.2800	0.0000
67.2900	0.0000
67.3000	0.0000
67.3100	0.0000
67.3200	0.0000
67.3300	0.0000
67.3400	0.0000
67.3500	0.0000
67.3600	25.0144
67.3700	0.3363
67.3800	0.0000
67.3900	0.0000
67.4000	0.0000
67.4100	0.0000
67.4200	0.0000
67.4300	0.0000
67.4400	16.7323
67.4500	0.1682
67.4600	0.0000
67.4700	0.0000
67.4800	0.0000
67.4900	0.0000
67.5000	0.0000
67.5100	16.7323
67.5200	0.1682
67.5300	16.7323
67.5400	17.0686
67.5500	8.2821
67.5600	16.9005
67.5700	8.4502
67.5800	75.5467
67.5900	75.5467
67.6000	277.3424
67.6100	243.7096
67.6200	806.5084
67.6300	2124.8116
67.6400	11955.5578
67.6500	22035.0638
67.6600	13355.0639
67.6700	2191.3360
67.6800	974.6375
67.6900	310.7732
67.7000	269.5657
67.7100	128.4367
67.7200	93.1207
67.7300	68.2753
67.7400	25.6870
67.7500	25.1825
67.7600	0.3363
67.7700	25.1825
67.7800	17.0686
67.7900	0.0000
67.8000	25.0144
67.8100	17.0686
67.8200	0.1682
67.8300	0.0000
67.8400	0.0000
67.8500	8.2821
67.8600	8.6184
67.8700	0.0000
67.8800	0.0000
67.8900	16.7323
67.9000	0.1682
67.9100	0.0000
67.9200	0.0000
67.9300	0.0000
67.9400	0.0000
67.9500	0.0000
67.9600	0.0000
67.9700	0.0000
67.9800	0.0000
67.9900	0.0000
68.0000	0.0000
68.0100	0.0000
68.0200	0.0000
68.0300	0.0000
68.0400	0.0000
68.0500	0.0000
68.0600	0.0000
68.0700	0.0000
68.0800	0.0000
68.0900	0.0000
68.1000	0.0000
68.1100	0.0000
68.1200	0.0000
68.1300	16.7323
68.1400	0.1682
68.1500	0.0000
68.1600	0.0000
68.1700	0.0000
68.1800	0.0000
68.1900	0.0000
68.2000	0.0000
68.2100	8.2821
68.2200	0.1682
68.2300	0.0000
68.2400	0.0000
68.2500	0.0000
68.2600	25.1825
68.2700	0.1682
68.2800	0.0000
68.2900	0.0000
68.3000	0.0000
68.3100	0.0000
68.3200	0.0000
68.3300	0.0000
68.3400	0.0000
68.3500	0.0000
68.3600	0.0000
68.3700	0.0000
68.3800	8.2821
68.3900	16.9005
68.4000	0.1682
68.4100	0.0000
68.4200	0.0000
68.4300	0.0000
68.4400	0.0000
68.4500	0.0000
68.4600	0.0000
68.4700	0.0000
68.4800	0.0000
68.4900	0.0000
68.5000	0.0000
68.5100	0.0000
68.5200	0.0000
68.5300	0.0000
68.5400	0.0000
68.5500	0.0000
68.5600	0.0000
68.5700	0.0000
68.5800	0.0000
68.5900	0.0000
68.6000	0.0000
68.6100	16.7323
68.6200	0.1682
68.6300	0.0000
68.6400	0.0000
68.6500	0.0000
68.6600	0.0000
68.6700	16.7323
68.6800	0.1682
68.6900	0.0000
68.7000	8.4502
68.7100	0.0000
68.7200	24.8454
68.7300	51.0377
68.7400	8.6184
68.7500	25.1825
68.7600	8.4502
68.7700	8.6184
68.7800	0.0000
68.7900	0.0000
68.8000	0.0000
68.8100	16.7323
68.8200	8.6184
68.8300	0.0000
68.8400	0.0000
68.8500	0.0000
68.8600	25.1825
68.8700	0.1682
68.8800	0.0000
68.8900	0.0000
68.9000	16.5641
68.9100	8.7865
68.9200	0.0000
68.9300	0.0000
68.9400	0.0000
68.9500	0.0000
68.9600	0.0000
68.9700	0.0000
68.9800	0.0000
68.9900	0.0000
69.0000	0.0000
69.0100	0.0000
69.0200	0.0000
69.0300	0.0000
69.0400	0.0000
69.0500	8.2821
69.0600	8.6184
69.0700	0.0000
69.0800	16.7323
69.0900	16.9005
69.1000	8.6184
69.1100	8.2821
69.1200	16.9005
69.1300	0.1682
69.1400	25.1825
69.1500	0.1682
69.1600	0.0000
69.1700	0.0000
69.1800	0.0000
69.1900	8.2821
69.2000	16.9005
69.2100	0.1682
69.2200	0.0000
69.2300	0.0000
69.2400	0.0000
69.2500	0.0000
69.2600	0.0000
69.2700	16.5641
69.2800	8.7865
69.2900	0.0000
69.3000	0.0000
69.3100	0.0000
69.3200	0.0000
69.3300	0.0000
69.3400	0.0000
69.3500	16.7323
69.3600	0.1682
69.3700	0.0000
69.3800	0.0000
69.3900	0.0000
69.4000	0.0000
69.4100	0.0000
69.4200	8.2821
69.4300	8.6184
69.4400	0.0000
69.4500	0.0000
69.4600	0.0000
69.4700	25.0144
69.4800	0.3363
69.4900	0.0000
69.5000	0.0000
69.5100	16.7323
69.5200	8.6184
69.5300	16.7323
69.5400	0.1682
69.5500	0.0000
69.5600	0.0000
69.5700	0.0000
69.5800	8.2821
69.5900	8.6184
69.6000	0.0000
69.6100	0.0000
69.6200	8.2821
69.6300	8.6184
69.6400	0.0000
69.6500	0.0000
69.6600	0.0000
69.6700	8.2821
69.6800	16.9005
69.6900	8.6184
69.7000	0.0000
69.7100	0.0000
69.7200	0.0000
69.7300	16.5641
69.7400	8.7865
69.7500	0.0000
69.7600	0.0000
69.7700	0.0000
69.7800	0.0000
69.7900	0.0000
69.8000	0.0000
69.8100	0.0000
69.8200	0.0000
69.8300	16.5641
69.8400	8.7865
69.8500	0.0000
69.8600	0.0000
69.8700	0.0000
69.8800	16.5641
69.8900	8.7865
69.9000	0.0000
69.9100	16.7323
69.9200	8.6184
69.9300	16.7323
69.9400	25.3507
69.9500	0.1682
69.9600	8.2821
69.9700	8.6184
69.9800	16.7323
69.9900	0.1682
70.0000	0.0000
70.0100	16.7323
70.0200	0.1682
70.0300	0.0000
70.0400	8.4502
70.0500	16.5641
70.0600	8.7865
70.0700	0.0000
70.0800	0.0000
70.0900	0.0000
70.1000	0.0000
70.1100	0.0000
70.1200	0.0000
70.1300	0.0000
70.1400	0.0000
70.1500	8.2821
70.1600	8.6184
70.1700	0.0000
70.1800	0.0000
70.1900	8.2821
70.2000	8.6184
70.2100	0.0000
70.2200	8.2821
70.2300	8.6184
70.2400	0.0000
70.2500	16.7323
70.2600	8.6184
70.2700	8.2821
70.2800	16.9005
70.2900	25.3507
70.3000	0.1682
70.3100	0.0000
70.3200	0.0000
70.3300	25.1825
70.3400	0.1682
70.3500	0.0000
70.3600	24.8454
70.3700	42.2511
70.3800	25.8560
70.3900	25.0144
70.4000	0.3363
70.4100	8.2821
70.4200	8.6184
70.4300	0.0000
70.4400	25.0144
70.4500	33.9691
70.4600	0.1682
70.4700	16.5641
70.4800	17.0686
70.4900	33.4646
70.5000	25.6870
70.5100	8.6184
70.5200	50.0279
70.5300	9.1237
70.5400	25.1825
70.5500	66.7602
70.5600	42.9246
70.5700	58.8153
70.5800	42.5875
70.5900	67.4337
70.6000	17.0686
70.6100	58.6463
70.6200	76.0521
70.6300	42.5875
70.6400	142.8122
70.6500	93.2888
70.6600	109.8530
70.6700	201.2904
70.6800	220.5476
70.6900	202.9736
70.7000	277.5106
70.7100	379.7550
70.7200	605.2180
70.7300	892.0213
70.7400	1587.1617
70.7500	3655.1446
70.7600	13211.3090
70.7700	39975.1667
70.7800	52729.5940
70.7900	29213.2481
70.8000	9060.5644
70.8100	3100.7284
70.8200	1369.0713
70.8300	808.3269
70.8400	558.5567
70.8500	299.2927
70.8600	253.0015
70.8700	237.1117
70.8800	178.6328
70.8900	110.3583
70.9000	142.9804
70.9100	59.6569
70.9200	101.9081
70.9300	92.2790
70.9400	59.6569
70.9500	0.5053
70.9600	16.7323
70.9700	75.3786
70.9800	76.0521
70.9900	33.9691
71.0000	50.7014
71.0100	33.8009
71.0200	34.1372
71.0300	8.7865
71.0400	41.5777
71.0500	67.4337
71.0600	34.4744
71.0700	33.6328
71.0800	42.0830
71.0900	109.0113
71.1000	9.6282
71.1100	17.0686
71.1200	16.5641
71.1300	33.9691
71.1400	25.1825
71.1500	33.6328
71.1600	42.0830
71.1700	59.4879
71.1800	117.4616
71.1900	85.0076
71.2000	100.8974
71.2100	109.6848
71.2200	143.3176
71.2300	202.8055
71.2400	335.6524
71.2500	422.3432
71.2600	857.3787
71.2700	2100.1345
71.2800	7946.4129
71.2900	43553.9911
71.3000	210719.1518
71.3100	231215.9894
71.3200	73530.3220
71.3300	14107.0342
71.3400	2611.2219
71.3500	997.5985
71.3600	443.6201
71.3700	280.2045
71.3800	362.3500
71.3900	222.2309
71.4000	177.4548
71.4100	85.0076
71.4200	109.8530
71.4300	67.9381
71.4400	117.6297
71.4500	51.7112
71.4600	67.4337
71.4700	17.2368
71.4800	33.1274
71.4900	51.2067
71.5000	33.8009
71.5100	25.1825
71.5200	50.3650
71.5300	34.1372
71.5400	8.7865
71.5500	33.4646
71.5600	8.6184
71.5700	16.9005
71.5800	8.6184
71.5900	0.0000
71.6000	0.0000
71.6100	25.1825
71.6200	25.3507
71.6300	25.1825
71.6400	8.6184
71.6500	33.4646
71.6600	8.9556
71.6700	0.0000
71.6800	33.4646
71.6900	0.3363
71.7000	0.0000
71.7100	0.0000
71.7200	0.0000
71.7300	0.0000
71.7400	0.0000
71.7500	0.0000
71.7600	0.0000
71.7700	0.0000
71.7800	16.7323
71.7900	0.1682
71.8000	0.0000
71.8100	16.7323
71.8200	0.1682
71.8300	8.2821
71.8400	8.6184
71.8500	0.0000
71.8600	0.0000
71.8700	16.7323
71.8800	8.6184
71.8900	0.0000
71.9000	0.0000
71.9100	0.0000
71.9200	0.0000
71.9300	0.0000
71.9400	0.0000
71.9500	0.0000
71.9600	0.0000
71.9700	0.0000
71.9800	0.0000
71.9900	0.0000
72.0000	0.0000
72.0100	0.0000
72.0200	0.0000
72.0300	0.0000
72.0400	8.2821
72.0500	17.0686
72.0600	0.0000
72.0700	16.7323
72.0800	0.1682
72.0900	0.0000
72.1000	0.0000
72.1100	0.0000
72.1200	0.0000
72.1300	0.0000
72.1400	0.0000
72.1500	0.0000
72.1600	0.0000
72.1700	0.0000
72.1800	0.0000
72.1900	0.0000
72.2000	0.0000
72.2100	0.0000
72.2200	16.7323
72.2300	0.1682
72.2400	0.0000
72.2500	0.0000
72.2600	0.0000
72.2700	0.0000
72.2800	8.2821
72.2900	8.6184
72.3000	0.0000
72.3100	0.0000
72.3200	0.0000
72.3300	0.0000
72.3400	0.0000
72.3500	0.0000
72.3600	0.0000
72.3700	0.0000
72.3800	0.0000
72.3900	8.2821
72.4000	25.1825
72.4100	0.3363
72.4200	0.0000
72.4300	0.0000
72.4400	0.0000
72.4500	0.0000
72.4600	0.0000
72.4700	25.1825
72.4800	0.1682
72.4900	16.7323
72.5000	8.4502
72.5100	8.6184
72.5200	16.7323
72.5300	16.9005
72.5400	0.1682
72.5500	0.0000
72.5600	16.7323
72.5700	0.1682
72.5800	25.1825
72.5900	0.1682
72.6000	0.0000
72.6100	0.0000
72.6200	0.0000
72.6300	0.0000
72.6400	0.0000
72.6500	0.0000
72.6600	0.0000
72.6700	0.0000
72.6800	16.7323
72.6900	8.6184
72.7000	0.0000
72.7100	0.0000
72.7200	0.0000
72.7300	0.0000
72.7400	0.0000
72.7500	25.0144
72.7600	25.5188
72.7700	8.6184
72.7800	0.0000
72.7900	0.0000
72.8000	0.0000
72.8100	16.7323
72.8200	0.1682
72.8300	0.0000
72.8400	0.0000
72.8500	0.0000
72.8600	25.0144
72.8700	0.3363
72.8800	0.0000
72.8900	0.0000
72.9000	0.0000
72.9100	0.0000
72.9200	8.2821
72.9300	33.6328
72.9400	8.7865
72.9500	0.0000
72.9600	0.0000
72.9700	16.7323
72.9800	0.1682
72.9900	0.0000
73.0000	16.7323
73.0100	0.1682
73.0200	0.0000
73.0300	16.5641
73.0400	17.0686
73.0500	8.6184
73.0600	0.0000
73.0700	0.0000
73.0800	0.0000
73.0900	0.0000
73.1000	0.0000
73.1100	0.0000
73.1200	0.0000
73.1300	0.0000
73.1400	0.0000
73.1500	0.0000
73.1600	0.0000
73.1700	0.0000
73.1800	0.0000
73.1900	0.0000
73.2000	0.0000
73.2100	0.0000
73.2200	0.0000
73.2300	0.0000
73.2400	0.0000
73.2500	0.0000
73.2600	0.0000
73.2700	8.2821
73.2800	16.9005
73.2900	0.1682
73.3000	16.7323
73.3100	0.1682
73.3200	0.0000
73.3300	0.0000
73.3400	0.0000
73.3500	0.0000
73.3600	0.0000
73.3700	8.2821
73.3800	25.1825
73.3900	25.5188
73.4000	0.1682
73.4100	0.0000
73.4200	0.0000
73.4300	0.0000
73.4400	0.0000
73.4500	0.0000
73.4600	16.7323
73.4700	8.6184
73.4800	0.0000
73.4900	0.0000
73.5000	16.7323
73.5100	8.6184
73.5200	16.7323
73.5300	0.1682
73.5400	0.0000
73.5500	16.5641
73.5600	8.7865
73.5700	0.0000
73.5800	0.0000
73.5900	0.0000
73.6000	0.0000
73.6100	8.2821
73.6200	16.9005
73.6300	8.6184
73.6400	0.0000
73.6500	0.0000
73.6600	8.2821
73.6700	8.6184
73.6800	0.0000
73.6900	0.0000
73.7000	0.0000
73.7100	0.0000
73.7200	0.0000
73.7300	0.0000
73.7400	25.0144
73.7500	0.3363
73.7600	0.0000
73.7700	0.0000
73.7800	8.2821
73.7900	16.9005
73.8000	17.0686
73.8100	0.0000
73.8200	0.0000
73.8300	0.0000
73.8400	0.0000
73.8500	0.0000
73.8600	0.0000
73.8700	0.0000
73.8800	41.5777
73.8900	67.7700
73.9000	58.8153
73.9100	84.5023
73.9200	76.5574
73.9300	16.9005
73.9400	8.7865
73.9500	16.5641
73.9600	8.7865
73.9700	16.7323
73.9800	8.6184
73.9900	0.0000
74.0000	16.7323
74.0100	0.1682
74.0200	0.0000
74.0300	0.0000
74.0400	0.0000
74.0500	0.0000
74.0600	0.0000
74.0700	0.0000
74.0800	0.0000
74.0900	0.0000
74.1000	0.0000
74.1100	0.0000
74.1200	0.0000
74.1300	0.0000
74.1400	0.0000
74.1500	0.0000
74.1600	0.0000
74.1700	0.0000
74.1800	0.0000
74.1900	0.0000
74.2000	0.0000
74.2100	16.7323
74.2200	8.6184
74.2300	0.0000
74.2400	0.0000
74.2500	0.0000
74.2600	0.0000
74.2700	0.0000
74.2800	0.0000
74.2900	0.0000
74.3000	0.0000
74.3100	0.0000
74.3200	0.0000
74.3300	0.0000
74.3400	0.0000
74.3500	0.0000
74.3600	0.0000
74.3700	16.7323
74.3800	16.9005
74.3900	25.3507
74.4000	0.1682
74.4100	8.2821
74.4200	8.6184
74.4300	0.0000
74.4400	16.7323
74.4500	0.1682
74.4600	0.0000
74.4700	8.2821
74.4800	8.6184
74.4900	25.1825
74.5000	8.6184
74.5100	16.7323
74.5200	0.1682
74.5300	0.0000
74.5400	0.0000
74.5500	0.0000
74.5600	0.0000
74.5700	0.0000
74.5800	0.0000
74.5900	0.0000
74.6000	0.0000
74.6100	0.0000
74.6200	0.0000
74.6300	16.7323
74.6400	17.0686
74.6500	8.2821
74.6600	16.9005
74.6700	8.4502
74.6800	8.6184
74.6900	25.0144
74.7000	0.3363
74.7100	0.0000
74.7200	0.0000
74.7300	0.0000
74.7400	0.0000
74.7500	0.0000
74.7600	0.0000
74.7700	0.0000
74.7800	0.0000
74.7900	0.0000
74.8000	0.0000
74.8100	0.0000
74.8200	0.0000
74.8300	0.0000
74.8400	0.0000
74.8500	0.0000
74.8600	0.0000
74.8700	0.0000
74.8800	0.0000
74.8900	8.2821
74.9000	17.0686
74.9100	0.0000
74.9200	0.0000
74.9300	0.0000
74.9400	16.7323
74.9500	8.6184
74.9600	8.2821
74.9700	8.6184
74.9800	0.0000
74.9900	0.0000
75.0000	0.0000
75.0100	16.5641
75.0200	8.7865
75.0300	16.7323
75.0400	17.0686
75.0500	0.0000
75.0600	0.0000
75.0700	0.0000
75.0800	0.0000
75.0900	8.2821
75.1000	16.9005
75.1100	0.1682
75.1200	0.0000
75.1300	0.0000
75.1400	0.0000
75.1500	0.0000
75.1600	8.2821
75.1700	8.6184
75.1800	0.0000
75.1900	0.0000
75.2000	0.0000
75.2100	0.0000
75.2200	0.0000
75.2300	0.0000
75.2400	16.7323
75.2500	16.9005
75.2600	0.1682
75.2700	0.0000
75.2800	0.0000
75.2900	8.2821
75.3000	8.6184
75.3100	8.2821
75.3200	8.6184
75.3300	16.7323
75.3400	0.1682
75.3500	0.0000
75.3600	0.0000
75.3700	0.0000
75.3800	0.0000
75.3900	16.5641
75.4000	8.7865
75.4100	0.0000
75.4200	0.0000
75.4300	0.0000
75.4400	8.2821
75.4500	8.6184
75.4600	0.0000
75.4700	0.0000
75.4800	41.5777
75.4900	9.1237
75.5000	0.0000
75.5100	0.0000
75.5200	0.0000
75.5300	0.0000
75.5400	0.0000
75.5500	0.0000
75.5600	0.0000
75.5700	0.0000
75.5800	0.0000
75.5900	0.0000
75.6000	0.0000
75.6100	0.0000
75.6200	0.0000
75.6300	16.7323
75.6400	0.1682
75.6500	0.0000
75.6600	0.0000
75.6700	25.0144
75.6800	0.3363
75.6900	0.0000
75.7000	8.2821
75.7100	0.1682
75.7200	0.0000
75.7300	0.0000
75.7400	0.0000
75.7500	0.0000
75.7600	0.0000
75.7700	0.0000
75.7800	0.0000
75.7900	0.0000
75.8000	8.2821
75.8100	8.6184
75.8200	0.0000
75.8300	0.0000
75.8400	0.0000
75.8500	0.0000
75.8600	0.0000
75.8700	8.2821
75.8800	16.9005
75.8900	0.1682
75.9000	8.2821
75.9100	8.6184
75.9200	0.0000
75.9300	0.0000
75.9400	0.0000
75.9500	0.0000
75.9600	0.0000
75.9700	0.0000
75.9800	0.0000
75.9900	0.0000
76.0000	0.0000
76.0100	0.0000
76.0200	0.0000
76.0300	0.0000
76.0400	0.0000
76.0500	0.0000
76.0600	0.0000
76.0700	8.2821
76.0800	8.6184
76.0900	0.0000
76.1000	0.0000
76.1100	0.0000
76.1200	0.0000
76.1300	0.0000
76.1400	0.0000
76.1500	0.0000
76.1600	0.0000
76.1700	0.0000
76.1800	0.0000
76.1900	0.0000
76.2000	0.0000
76.2100	0.0000
76.2200	0.0000
76.2300	0.0000
76.2400	16.7323
76.2500	0.1682
76.2600	0.0000
76.2700	0.0000
76.2800	0.0000
76.2900	0.0000
76.3000	0.0000
76.3100	0.0000
76.3200	0.0000
76.3300	0.0000
76.3400	0.0000
76.3500	0.0000
76.3600	0.0000
76.3700	0.0000
76.3800	0.0000
76.3900	0.0000
76.4000	0.0000
76.4100	0.0000
76.4200	0.0000
76.4300	0.0000
76.4400	16.7323
76.4500	0.1682
76.4600	0.0000
76.4700	0.0000
76.4800	0.0000
76.4900	0.0000
76.5000	0.0000
76.5100	0.0000
76.5200	0.0000
76.5300	0.0000
76.5400	0.0000
76.5500	0.0000
76.5600	0.0000
76.5700	0.0000
76.5800	0.0000
76.5900	0.0000
76.6000	0.0000
76.6100	0.0000
76.6200	0.0000
76.6300	16.7323
76.6400	0.1682
76.6500	0.0000
76.6600	0.0000
76.6700	0.0000
76.6800	0.0000
76.6900	0.0000
76.7000	0.0000
76.7100	8.2821
76.7200	8.6184
76.7300	0.0000
76.7400	0.0000
76.7500	0.0000
76.7600	0.0000
76.7700	0.0000
76.7800	0.0000
76.7900	0.0000
76.8000	0.0000
76.8100	0.0000
76.8200	0.0000
76.8300	0.0000
76.8400	0.0000
76.8500	16.5641
76.8600	25.3507
76.8700	0.3363
76.8800	0.0000
76.8900	0.0000
76.9000	0.0000
76.9100	0.0000
76.9200	0.0000
76.9300	0.0000
76.9400	0.0000
76.9500	0.0000
76.9600	0.0000
76.9700	0.0000
76.9800	0.0000
76.9900	25.0144
77.0000	16.9005
77.0100	25.5188
77.0200	0.1682
77.0300	0.0000
77.0400	0.0000
77.0500	0.0000
77.0600	0.0000
77.0700	25.0144
77.0800	16.9005
77.0900	8.7865
77.1000	0.0000
77.1100	0.0000
77.1200	0.0000
77.1300	0.0000
77.1400	0.0000
77.1500	0.0000
77.1600	16.5641
77.1700	17.0686
77.1800	17.0686
77.1900	0.0000
77.2000	0.0000
77.2100	0.0000
77.2200	0.0000
77.2300	8.2821
77.2400	25.1825
77.2500	0.3363
77.2600	8.2821
77.2700	25.1825
77.2800	0.3363
77.2900	0.0000
77.3000	0.0000
77.3100	0.0000
77.3200	0.0000
77.3300	0.0000
77.3400	16.7323
77.3500	0.1682
77.3600	0.0000
77.3700	33.4646
77.3800	8.7865
77.3900	0.0000
77.4000	0.0000
77.4100	0.0000
77.4200	0.0000
77.4300	0.0000
77.4400	0.0000
77.4500	0.0000
77.4600	0.0000
77.4700	0.0000
77.4800	0.0000
77.4900	0.0000
77.5000	8.2821
77.5100	17.0686
77.5200	0.0000
77.5300	0.0000
77.5400	0.0000
77.5500	0.0000
77.5600	0.0000
77.5700	0.0000
77.5800	0.0000
77.5900	0.0000
77.6000	0.0000
77.6100	0.0000
77.6200	0.0000
77.6300	25.1825
77.6400	8.6184
77.6500	16.7323
77.6600	16.9005
77.6700	0.1682
77.6800	25.1825
77.6900	0.1682
77.7000	0.0000
77.7100	8.2821
77.7200	8.6184
77.7300	0.0000
77.7400	0.0000
77.7500	0.0000
77.7600	0.0000
77.7700	0.0000
77.7800	0.0000
77.7900	0.0000
77.8000	0.0000
77.8100	0.0000
77.8200	0.0000
77.8300	16.5641
77.8400	17.0686
77.8500	0.1682
77.8600	0.0000
77.8700	25.1825
77.8800	0.1682
77.8900	0.0000
77.9000	8.2821
77.9100	8.6184
77.9200	0.0000
77.9300	0.0000
77.9400	0.0000
77.9500	0.0000
77.9600	0.0000
77.9700	0.0000
77.9800	0.0000
77.9900	8.2821
78.0000	8.6184
78.0100	0.0000
78.0200	0.0000
78.0300	0.0000
78.0400	0.0000
78.0500	0.0000
78.0600	0.0000
78.0700	16.7323
78.0800	0.1682
78.0900	0.0000
78.1000	25.0144
78.1100	17.0686
78.1200	0.1682
78.1300	0.0000
78.1400	0.0000
78.1500	0.0000
78.1600	0.0000
78.1700	0.0000
78.1800	0.0000
78.1900	0.0000
78.2000	25.0144
78.2100	0.3363
78.2200	0.0000
78.2300	0.0000
78.2400	0.0000
78.2500	8.2821
78.2600	8.6184
78.2700	0.0000
78.2800	8.2821
78.2900	33.6328
78.3000	8.6184
78.3100	16.9005
78.3200	17.0686
78.3300	8.2821
78.3400	8.6184
78.3500	0.0000
78.3600	0.0000
78.3700	0.0000
78.3800	0.0000
78.3900	0.0000
78.4000	0.0000
78.4100	0.0000
78.4200	0.0000
78.4300	0.0000
78.4400	0.0000
78.4500	0.0000
78.4600	8.2821
78.4700	16.9005
78.4800	0.1682
78.4900	16.7323
78.5000	8.4502
78.5100	16.9005
78.5200	0.1682
78.5300	0.0000
78.5400	0.0000
78.5500	0.0000
78.5600	0.0000
78.5700	0.0000
78.5800	0.0000
78.5900	0.0000
78.6000	8.2821
78.6100	33.8009
78.6200	0.1682
78.6300	0.0000
78.6400	0.0000
78.6500	0.0000
78.6600	0.0000
78.6700	8.2821
78.6800	8.6184
78.6900	0.0000
78.7000	0.0000
78.7100	0.0000
78.7200	0.0000
78.7300	0.0000
78.7400	0.0000
78.7500	0.0000
78.7600	0.0000
78.7700	0.0000
78.7800	0.0000
78.7900	16.7323
78.8000	8.6184
78.8100	0.0000
78.8200	0.0000
78.8300	0.0000
78.8400	0.0000
78.8500	0.0000
78.8600	16.7323
78.8700	0.1682
78.8800	0.0000
78.8900	8.2821
78.9000	8.6184
78.9100	0.0000
78.9200	0.0000
78.9300	0.0000
78.9400	0.0000
78.9500	0.0000
78.9600	0.0000
78.9700	0.0000
78.9800	0.0000
78.9900	0.0000
79.0000	0.0000
79.0100	8.2821
79.0200	8.6184
79.0300	0.0000
79.0400	0.0000
79.0500	0.0000
79.0600	8.2821
79.0700	8.6184
79.0800	0.0000
79.0900	0.0000
79.1000	0.0000
79.1100	0.0000
79.1200	0.0000
79.1300	0.0000
79.1400	0.0000
79.1500	0.0000
79.1600	0.0000
79.1700	0.0000
79.1800	0.0000
79.1900	0.0000
79.2000	16.7323
79.2100	8.6184
79.2200	0.0000
79.2300	0.0000
79.2400	0.0000
79.2500	0.0000
79.2600	0.0000
79.2700	0.0000
79.2800	0.0000
79.2900	16.7323
79.3000	8.4502
79.3100	17.0686
79.3200	0.0000
79.3300	0.0000
79.3400	0.0000
79.3500	0.0000
79.3600	0.0000
79.3700	0.0000
79.3800	16.7323
79.3900	0.1682
79.4000	25.0144
79.4100	0.3363
79.4200	0.0000
79.4300	0.0000
79.4400	25.1825
79.4500	8.6184
79.4600	0.0000
79.4700	0.0000
79.4800	0.0000
79.4900	0.0000
79.5000	0.0000
79.5100	8.2821
79.5200	8.6184
79.5300	0.0000
79.5400	0.0000
79.5500	0.0000
79.5600	0.0000
79.5700	0.0000
79.5800	0.0000
79.5900	0.0000
79.6000	0.0000
79.6100	0.0000
79.6200	0.0000
79.6300	0.0000
79.6400	33.4646
79.6500	0.3363
79.6600	0.0000
79.6700	0.0000
79.6800	0.0000
79.6900	0.0000
79.7000	0.0000
79.7100	0.0000
79.7200	0.0000
79.7300	0.0000
79.7400	0.0000
79.7500	0.0000
79.7600	16.7323
79.7700	0.1682
79.7800	0.0000
79.7900	0.0000
79.8000	0.0000
79.8100	0.0000
79.8200	0.0000
79.8300	0.0000
79.8400	0.0000
79.8500	0.0000
79.8600	0.0000
79.8700	0.0000
79.8800	0.0000
79.8900	0.0000
79.9000	16.5641
79.9100	8.7865
79.9200	0.0000
79.9300	0.0000
79.9400	0.0000
79.9500	0.0000
79.9600	0.0000
79.9700	0.0000
79.9800	0.0000
79.9900	0.0000
80.0000	0.0000
80.0100	0.0000
80.0200	0.0000
80.0300	0.0000
80.0400	0.0000
80.0500	0.0000
80.0600	8.2821
80.0700	16.9005
80.0800	0.1682
80.0900	0.0000
80.1000	0.0000
80.1100	33.4646
80.1200	0.3363
80.1300	0.0000
80.1400	0.0000
80.1500	0.0000
80.1600	0.0000
80.1700	0.0000
80.1800	0.0000
80.1900	0.0000
80.2000	0.0000
80.2100	0.0000
80.2200	0.0000
80.2300	0.0000
80.2400	0.0000
80.2500	0.0000
80.2600	0.0000
80.2700	8.2821
80.2800	25.3507
80.2900	0.1682
80.3000	0.0000
80.3100	0.0000
80.3200	0.0000
80.3300	0.0000
80.3400	0.0000
80.3500	0.0000
80.3600	0.0000
80.3700	0.0000
80.3800	0.0000
80.3900	16.7323
80.4000	16.7323
80.4100	8.7865
80.4200	0.0000
80.4300	0.0000
80.4400	0.0000
80.4500	0.0000
80.4600	0.0000
80.4700	0.0000
80.4800	0.0000
80.4900	0.0000
80.5000	0.0000
80.5100	0.0000
80.5200	16.7323
80.5300	0.1682
80.5400	0.0000
80.5500	8.2821
80.5600	8.6184
80.5700	0.0000
80.5800	0.0000
80.5900	0.0000
80.6000	16.7323
80.6100	0.1682
80.6200	0.0000
80.6300	8.2821
80.6400	33.6328
80.6500	0.3363
80.6600	0.0000
80.6700	0.0000
80.6800	0.0000
80.6900	0.0000
80.7000	16.7323
80.7100	8.4502
80.7200	8.6184
80.7300	25.0144
80.7400	8.7865
80.7500	0.0000
80.7600	0.0000
80.7700	0.0000
80.7800	0.0000
80.7900	0.0000
80.8000	0.0000
80.8100	0.0000
80.8200	0.0000
80.8300	0.0000
80.8400	0.0000
80.8500	0.0000
80.8600	0.0000
80.8700	0.0000
80.8800	0.0000
80.8900	0.0000
80.9000	16.7323
80.9100	0.1682
80.9200	0.0000
80.9300	16.7323
80.9400	25.3507
80.9500	0.1682
80.9600	0.0000
80.9700	0.0000
80.9800	0.0000
80.9900	0.0000
81.0000	0.0000
81.0100	0.0000
81.0200	0.0000
81.0300	0.0000
81.0400	0.0000
81.0500	0.0000
81.0600	8.2821
81.0700	25.3507
81.0800	8.6184
81.0900	0.0000
81.1000	0.0000
81.1100	0.0000
81.1200	0.0000
81.1300	0.0000
81.1400	0.0000
81.1500	0.0000
81.1600	0.0000
81.1700	33.4646
81.1800	0.3363
81.1900	0.0000
81.2000	25.1825
81.2100	17.0686
81.2200	0.0000
81.2300	0.0000
81.2400	0.0000
81.2500	0.0000
81.2600	0.0000
81.2700	0.0000
81.2800	25.1825
81.2900	8.4502
81.3000	41.9148
81.3100	8.9556
81.3200	0.0000
81.3300	33.2956
81.3400	8.9556
81.3500	25.0144
81.3600	0.3363
81.3700	0.0000
81.3800	0.0000
81.3900	0.0000
81.4000	0.0000
81.4100	0.0000
81.4200	0.0000
81.4300	0.0000
81.4400	0.0000
81.4500	0.0000
81.4600	0.0000
81.4700	0.0000
81.4800	0.0000
81.4900	0.0000
81.5000	8.2821
81.5100	8.6184
81.5200	25.0144
81.5300	0.3363
81.5400	16.7323
81.5500	0.1682
81.5600	0.0000
81.5700	0.0000
81.5800	0.0000
81.5900	0.0000
81.6000	0.0000
81.6100	0.0000
81.6200	0.0000
81.6300	0.0000
81.6400	0.0000
81.6500	0.0000
81.6600	8.2821
81.6700	17.0686
81.6800	0.0000
81.6900	16.7323
81.7000	0.1682
81.7100	8.2821
81.7200	17.0686
81.7300	0.0000
81.7400	0.0000
81.7500	8.2821
81.7600	8.6184
81.7700	16.7323
81.7800	0.1682
81.7900	0.0000
81.8000	0.0000
81.8100	8.2821
81.8200	8.6184
81.8300	0.0000
81.8400	0.0000
81.8500	0.0000
81.8600	0.0000
81.8700	0.0000
81.8800	25.1825
81.8900	8.6184
81.9000	0.0000
81.9100	0.0000
81.9200	0.0000
81.9300	0.0000
81.9400	0.0000
81.9500	0.0000
81.9600	0.0000
81.9700	0.0000
81.9800	8.2821
81.9900	8.6184
82.0000	0.0000
82.0100	0.0000
82.0200	0.0000
82.0300	25.0144
82.0400	8.7865
82.0500	16.5641
82.0600	17.0686
82.0700	0.1682
82.0800	0.0000
82.0900	0.0000
82.1000	0.0000
82.1100	16.7323
82.1200	16.9005
82.1300	8.6184
82.1400	0.0000
82.1500	0.0000
82.1600	0.0000
82.1700	0.0000
82.1800	0.0000
82.1900	0.0000
82.2000	0.0000
82.2100	0.0000
82.2200	0.0000
82.2300	0.0000
82.2400	0.0000
82.2500	0.0000
82.2600	0.0000
82.2700	0.0000
82.2800	0.0000
82.2900	0.0000
82.3000	0.0000
82.3100	0.0000
82.3200	16.7323
82.3300	0.1682
82.3400	0.0000
82.3500	0.0000
82.3600	16.7323
82.3700	0.1682
82.3800	0.0000
82.3900	0.0000
82.4000	0.0000
82.4100	0.0000
82.4200	0.0000
82.4300	0.0000
82.4400	0.0000
82.4500	0.0000
82.4600	0.0000
82.4700	0.0000
82.4800	0.0000
82.4900	0.0000
82.5000	8.2821
82.5100	16.9005
82.5200	0.1682
82.5300	0.0000
82.5400	0.0000
82.5500	0.0000
82.5600	0.0000
82.5700	0.0000
82.5800	0.0000
82.5900	0.0000
82.6000	0.0000
82.6100	0.0000
82.6200	8.2821
82.6300	16.9005
82.6400	0.1682
82.6500	25.0144
82.6600	16.9005
82.6700	8.7865
82.6800	0.0000
82.6900	0.0000
82.7000	0.0000
82.7100	0.0000
82.7200	0.0000
82.7300	0.0000
82.7400	0.0000
82.7500	0.0000
82.7600	0.0000
82.7700	0.0000
82.7800	0.0000
82.7900	0.0000
82.8000	25.0144
82.8100	8.7865
82.8200	16.7323
82.8300	0.1682
82.8400	0.0000
82.8500	0.0000
82.8600	0.0000
82.8700	0.0000
82.8800	0.0000
82.8900	8.2821
82.9000	8.6184
82.9100	0.0000
82.9200	0.0000
82.9300	0.0000
82.9400	0.0000
82.9500	0.0000
82.9600	0.0000
82.9700	0.0000
82.9800	0.0000
82.9900	0.0000
83.0000	0.0000
83.0100	0.0000
83.0200	0.0000
83.0300	0.0000
83.0400	0.0000
83.0500	0.0000
83.0600	0.0000
83.0700	0.0000
83.0800	0.0000
83.0900	0.0000
83.1000	0.0000
83.1100	0.0000
83.1200	0.0000
83.1300	0.0000
83.1400	0.0000
83.1500	0.0000
83.1600	0.0000
83.1700	0.0000
83.1800	0.0000
83.1900	0.0000
83.2000	0.0000
83.2100	0.0000
83.2200	0.0000
83.2300	0.0000
83.2400	8.2821
83.2500	8.6184
83.2600	0.0000
83.2700	0.0000
83.2800	0.0000
83.2900	0.0000
83.3000	8.2821
83.3100	8.6184
83.3200	0.0000
83.3300	0.0000
83.3400	0.0000
83.3500	0.0000
83.3600	0.0000
83.3700	0.0000
83.3800	0.0000
83.3900	0.0000
83.4000	0.0000
83.4100	0.0000
83.4200	0.0000
83.4300	0.0000
83.4400	0.0000
83.4500	16.7323
83.4600	8.4502
83.4700	8.6184
83.4800	0.0000
83.4900	8.2821
83.5000	8.6184
83.5100	0.0000
83.5200	0.0000
83.5300	0.0000
83.5400	0.0000
83.5500	0.0000
83.5600	0.0000
83.5700	0.0000
83.5800	0.0000
83.5900	0.0000
83.6000	0.0000
83.6100	0.0000
83.6200	0.0000
83.6300	0.0000
83.6400	0.0000
83.6500	0.0000
83.6600	0.0000
83.6700	8.2821
83.6800	8.6184
83.6900	8.2821
83.7000	16.9005
83.7100	8.6184
83.7200	0.0000
83.7300	0.0000
83.7400	0.0000
83.7500	0.0000
83.7600	0.0000
83.7700	0.0000
83.7800	0.0000
83.7900	0.0000
83.8000	0.0000
83.8100	0.0000
83.8200	0.0000
83.8300	0.0000
83.8400	0.0000
83.8500	0.0000
83.8600	0.0000
83.8700	8.2821
83.8800	16.9005
83.8900	16.9005
83.9000	0.1682
83.9100	0.0000
83.9200	0.0000
83.9300	0.0000
83.9400	0.0000
83.9500	0.0000
83.9600	0.0000
83.9700	0.0000
83.9800	0.0000
83.9900	0.0000
84.0000	0.0000
84.0100	0.0000
84.0200	0.0000
84.0300	0.0000
84.0400	0.0000
84.0500	0.0000
84.0600	0.0000
84.0700	0.0000
84.0800	0.0000
84.0900	0.0000
84.1000	0.0000
84.1100	0.0000
84.1200	0.0000
84.1300	0.0000
84.1400	0.0000
84.1500	0.0000
84.1600	0.0000
84.1700	0.0000
84.1800	0.0000
84.1900	8.2821
84.2000	8.6184
84.2100	16.7323
84.2200	8.4502
84.2300	17.0686
84.2400	0.0000
84.2500	0.0000
84.2600	0.0000
84.2700	0.0000
84.2800	0.0000
84.2900	0.0000
84.3000	16.5641
84.3100	17.0686
84.3200	0.1682
84.3300	0.0000
84.3400	0.0000
84.3500	0.0000
84.3600	0.0000
84.3700	0.0000
84.3800	0.0000
84.3900	0.0000
84.4000	0.0000
84.4100	0.0000
84.4200	0.0000
84.4300	8.2821
84.4400	8.6184
84.4500	0.0000
84.4600	8.2821
84.4700	8.6184
84.4800	0.0000
84.4900	0.0000
84.5000	0.0000
84.5100	0.0000
84.5200	25.1825
84.5300	0.1682
84.5400	0.0000
84.5500	0.0000
84.5600	0.0000
84.5700	0.0000
84.5800	0.0000
84.5900	0.0000
84.6000	0.0000
84.6100	0.0000
84.6200	0.0000
84.6300	8.2821
84.6400	8.6184
84.6500	0.0000
84.6600	0.0000
84.6700	0.0000
84.6800	25.0144
84.6900	0.3363
84.7000	0.0000
84.7100	0.0000
84.7200	8.2821
84.7300	8.6184
84.7400	0.0000
84.7500	8.2821
84.7600	8.6184
84.7700	8.2821
84.7800	8.6184
84.7900	0.0000
84.8000	16.7323
84.8100	0.1682
84.8200	0.0000
84.8300	0.0000
84.8400	0.0000
84.8500	16.7323
84.8600	16.9005
84.8700	0.1682
84.8800	0.0000
84.8900	0.0000
84.9000	0.0000
84.9100	0.0000
84.9200	0.0000
84.9300	25.0144
84.9400	0.3363
84.9500	0.0000
84.9600	0.0000
84.9700	0.0000
84.9800	0.0000
84.9900	0.0000
85.0000	0.0000
85.0100	0.0000
85.0200	0.0000
85.0300	0.0000
85.0400	0.0000
85.0500	0.0000
85.0600	0.0000
85.0700	0.0000
85.0800	0.0000
85.0900	0.0000
85.1000	0.0000
85.1100	0.0000
85.1200	0.0000
85.1300	16.7323
85.1400	0.1682
85.1500	0.0000
85.1600	8.2821
85.1700	8.6184
85.1800	0.0000
85.1900	0.0000
85.2000	0.0000
85.2100	0.0000
85.2200	0.0000
85.2300	0.0000
85.2400	0.0000
85.2500	0.0000
85.2600	0.0000
85.2700	0.0000
85.2800	0.0000
85.2900	0.0000
85.3000	0.0000
85.3100	0.0000
85.3200	0.0000
85.3300	0.0000
85.3400	0.0000
85.3500	0.0000
85.3600	0.0000
85.3700	0.0000
85.3800	0.0000
85.3900	8.2821
85.4000	8.6184
85.4100	0.0000
85.4200	0.0000
85.4300	16.5641
85.4400	8.7865
85.4500	0.0000
85.4600	0.0000
85.4700	0.0000
85.4800	0.0000
85.4900	0.0000
85.5000	0.0000
85.5100	0.0000
85.5200	16.7323
85.5300	0.1682
85.5400	0.0000
85.5500	0.0000
85.5600	0.0000
85.5700	0.0000
85.5800	0.0000
85.5900	0.0000
85.6000	8.2821
85.6100	17.0686
85.6200	0.0000
85.6300	0.0000
85.6400	0.0000
85.6500	0.0000
85.6600	0.0000
85.6700	16.7323
85.6800	0.1682
85.6900	0.0000
85.7000	8.2821
85.7100	16.9005
85.7200	25.3507
85.7300	0.1682
85.7400	0.0000
85.7500	0.0000
85.7600	0.0000
85.7700	0.0000
85.7800	16.7323
85.7900	0.1682
85.8000	0.0000
85.8100	0.0000
85.8200	0.0000
85.8300	0.0000
85.8400	0.0000
85.8500	0.0000
85.8600	0.0000
85.8700	0.0000
85.8800	0.0000
85.8900	0.0000
85.9000	0.0000
85.9100	0.0000
85.9200	0.0000
85.9300	16.7323
85.9400	16.7323
85.9500	8.7865
85.9600	0.0000
85.9700	0.0000
85.9800	0.0000
85.9900	0.0000
86.0000	0.0000
86.0100	16.7323
86.0200	0.1682
86.0300	16.7323
86.0400	0.1682
86.0500	0.0000
86.0600	0.0000
86.0700	0.0000
86.0800	0.0000
86.0900	0.0000
86.1000	0.0000
86.1100	0.0000
86.1200	0.0000
86.1300	0.0000
86.1400	16.7323
86.1500	0.1682
86.1600	0.0000
86.1700	0.0000
86.1800	0.0000
86.1900	0.0000
86.2000	0.0000
86.2100	0.0000
86.2200	0.0000
86.2300	0.0000
86.2400	0.0000
86.2500	0.0000
86.2600	0.0000
86.2700	0.0000
86.2800	0.0000
86.2900	0.0000
86.3000	16.7323
86.3100	25.1825
86.3200	0.3363
86.3300	16.5641
86.3400	25.3507
86.3500	8.6184
86.3600	8.6184
86.3700	0.0000
86.3800	0.0000
86.3900	0.0000
86.4000	0.0000
86.4100	0.0000
86.4200	8.2821
86.4300	17.0686
86.4400	0.0000
86.4500	0.0000
86.4600	0.0000
86.4700	0.0000
86.4800	0.0000
86.4900	0.0000
86.5000	0.0000
86.5100	0.0000
86.5200	0.0000
86.5300	0.0000
86.5400	0.0000
86.5500	0.0000
86.5600	0.0000
86.5700	0.0000
86.5800	8.2821
86.5900	8.6184
86.6000	0.0000
86.6100	0.0000
86.6200	0.0000
86.6300	0.0000
86.6400	0.0000
86.6500	0.0000
86.6600	16.7323
86.6700	0.1682
86.6800	0.0000
86.6900	0.0000
86.7000	0.0000
86.7100	0.0000
86.7200	0.0000
86.7300	0.0000
86.7400	0.0000
86.7500	0.0000
86.7600	0.0000
86.7700	0.0000
86.7800	0.0000
86.7900	0.0000
86.8000	0.0000
86.8100	0.0000
86.8200	0.0000
86.8300	0.0000
86.8400	0.0000
86.8500	25.1825
86.8600	0.1682
86.8700	0.0000
86.8800	0.0000
86.8900	0.0000
86.9000	0.0000
86.9100	0.0000
86.9200	0.0000
86.9300	0.0000
86.9400	16.7323
86.9500	0.1682
86.9600	16.7323
86.9700	0.1682
86.9800	0.0000
86.9900	0.0000
87.0000	16.7323
87.0100	0.1682
87.0200	0.0000
87.0300	0.0000
87.0400	0.0000
87.0500	0.0000
87.0600	0.0000
87.0700	0.0000
87.0800	0.0000
87.0900	0.0000
87.1000	0.0000
87.1100	0.0000
87.1200	16.7323
87.1300	0.1682
87.1400	0.0000
87.1500	0.0000
87.1600	0.0000
87.1700	0.0000
87.1800	8.2821
87.1900	8.6184
87.2000	0.0000
87.2100	0.0000
87.2200	0.0000
87.2300	0.0000
87.2400	0.0000
87.2500	0.0000
87.2600	0.0000
87.2700	16.7323
87.2800	17.0686
87.2900	0.0000
87.3000	16.5641
87.3100	17.0686
87.3200	0.1682
87.3300	8.2821
87.3400	16.9005
87.3500	0.1682
87.3600	0.0000
87.3700	0.0000
87.3800	0.0000
87.3900	0.0000
87.4000	0.0000
87.4100	16.5641
87.4200	17.0686
87.4300	0.1682
87.4400	0.0000
87.4500	0.0000
87.4600	0.0000
87.4700	0.0000
87.4800	0.0000
87.4900	0.0000
87.5000	0.0000
87.5100	0.0000
87.5200	0.0000
87.5300	0.0000
87.5400	0.0000
87.5500	25.1825
87.5600	0.1682
87.5700	0.0000
87.5800	25.1825
87.5900	0.1682
87.6000	0.0000
87.6100	0.0000
87.6200	0.0000
87.6300	0.0000
87.6400	0.0000
87.6500	0.0000
87.6600	0.0000
87.6700	0.0000
87.6800	0.0000
87.6900	0.0000
87.7000	0.0000
87.7100	0.0000
87.7200	8.2821
87.7300	25.1825
87.7400	8.6184
87.7500	16.9005
87.7600	16.9005
87.7700	0.1682
87.7800	0.0000
87.7900	0.0000
87.8000	16.7323
87.8100	0.1682
87.8200	0.0000
87.8300	8.2821
87.8400	16.9005
87.8500	0.1682
87.8600	0.0000
87.8700	0.0000
87.8800	0.0000
87.8900	0.0000
87.9000	0.0000
87.9100	0.0000
87.9200	0.0000
87.9300	0.0000
87.9400	0.0000
87.9500	0.0000
87.9600	0.0000
87.9700	0.0000
87.9800	0.0000
87.9900	16.7323
88.0000	16.9005
88.0100	0.1682
88.0200	0.0000
88.0300	0.0000
88.0400	0.0000
88.0500	16.7323
88.0600	0.1682
88.0700	8.2821
88.0800	8.6184
88.0900	0.0000
88.1000	0.0000
88.1100	16.7323
88.1200	0.1682
88.1300	0.0000
88.1400	0.0000
88.1500	8.2821
88.1600	8.6184
88.1700	8.2821
88.1800	8.6184
88.1900	0.0000
88.2000	0.0000
88.2100	0.0000
88.2200	0.0000
88.2300	0.0000
88.2400	0.0000
88.2500	16.7323
88.2600	0.1682
88.2700	0.0000
88.2800	0.0000
88.2900	0.0000
88.3000	0.0000
88.3100	0.0000
88.3200	0.0000
88.3300	0.0000
88.3400	0.0000
88.3500	0.0000
88.3600	0.0000
88.3700	0.0000
88.3800	0.0000
88.3900	0.0000
88.4000	0.0000
88.4100	16.7323
88.4200	8.4502
88.4300	17.0686
88.4400	0.0000
88.4500	0.0000
88.4600	0.0000
88.4700	8.2821
88.4800	17.0686
88.4900	0.0000
88.5000	16.7323
88.5100	8.6184
88.5200	0.0000
88.5300	0.0000
88.5400	0.0000
88.5500	0.0000
88.5600	0.0000
88.5700	0.0000
88.5800	16.7323
88.5900	8.6184
88.6000	0.0000
88.6100	0.0000
88.6200	0.0000
88.6300	0.0000
88.6400	0.0000
88.6500	0.0000
88.6600	0.0000
88.6700	0.0000
88.6800	16.7323
88.6900	0.1682
88.7000	0.0000
88.7100	0.0000
88.7200	0.0000
88.7300	0.0000
88.7400	25.1825
88.7500	0.1682
88.7600	0.0000
88.7700	0.0000
88.7800	16.7323
88.7900	0.1682
88.8000	0.0000
88.8100	0.0000
88.8200	0.0000
88.8300	0.0000
88.8400	16.7323
88.8500	16.9005
88.8600	17.0686
88.8700	0.0000
88.8800	8.2821
88.8900	8.6184
88.9000	0.0000
88.9100	0.0000
88.9200	16.7323
88.9300	0.1682
88.9400	0.0000
88.9500	0.0000
88.9600	8.2821
88.9700	8.6184
88.9800	0.0000
88.9900	0.0000
89.0000	0.0000
89.0100	0.0000
89.0200	0.0000
89.0300	16.7323
89.0400	0.1682
89.0500	0.0000
89.0600	8.2821
89.0700	8.6184
89.0800	0.0000
89.0900	0.0000
89.1000	16.7323
89.1100	16.9005
89.1200	25.3507
89.1300	8.4502
89.1400	8.6184
89.1500	8.2821
89.1600	25.1825
89.1700	17.0686
89.1800	0.1682
89.1900	0.0000
89.2000	0.0000
89.2100	8.2821
89.2200	8.6184
89.2300	0.0000
89.2400	0.0000
89.2500	8.2821
89.2600	25.3507
89.2700	0.1682
89.2800	16.7323
89.2900	0.1682
89.3000	0.0000
89.3100	0.0000
89.3200	8.2821
89.3300	8.6184
89.3400	0.0000
89.3500	0.0000
89.3600	0.0000
89.3700	0.0000
89.3800	0.0000
89.3900	0.0000
89.4000	0.0000
89.4100	0.0000
89.4200	0.0000
89.4300	0.0000
89.4400	0.0000
89.4500	0.0000
89.4600	0.0000
89.4700	0.0000
89.4800	0.0000
89.4900	33.4646
89.5000	0.3363
89.5100	0.0000
89.5200	0.0000
89.5300	0.0000
89.5400	0.0000
89.5500	0.0000
89.5600	0.0000
89.5700	0.0000
89.5800	0.0000
89.5900	0.0000
89.6000	0.0000
89.6100	0.0000
89.6200	0.0000
89.6300	0.0000
89.6400	0.0000
89.6500	8.2821
89.6600	8.6184
89.6700	0.0000
89.6800	0.0000
89.6900	0.0000
89.7000	0.0000
89.7100	0.0000
89.7200	0.0000
89.7300	0.0000
89.7400	0.0000
89.7500	0.0000
89.7600	0.0000
89.7700	0.0000
89.7800	0.0000
89.7900	0.0000
89.8000	0.0000
89.8100	0.0000
89.8200	0.0000
89.8300	0.0000
89.8400	0.0000
89.8500	0.0000
89.8600	0.0000
89.8700	0.0000
89.8800	0.0000
89.8900	0.0000
89.9000	0.0000
89.9100	0.0000
89.9200	0.0000
89.9300	0.0000
89.9400	0.0000
89.9500	0.0000
89.9600	25.1825
89.9700	16.9005
89.9800	25.3507
89.9900	0.1682
90.0000	0.0000
90.0100	0.0000
90.0200	0.0000
90.0300	0.0000
90.0400	0.0000
90.0500	0.0000
90.0600	0.0000
90.0700	0.0000
90.0800	0.0000
90.0900	0.0000
90.1000	0.0000
90.1100	0.0000
90.1200	0.0000
90.1300	0.0000
90.1400	0.0000
90.1500	0.0000
90.1600	0.0000
90.1700	0.0000
90.1800	8.2821
90.1900	8.6184
90.2000	0.0000
90.2100	25.0144
90.2200	17.2368
90.2300	0.0000
90.2400	0.0000
90.2500	0.0000
90.2600	0.0000
90.2700	0.0000
90.2800	0.0000
90.2900	0.0000
90.3000	0.0000
90.3100	0.0000
90.3200	0.0000
90.3300	0.0000
90.3400	0.0000
90.3500	16.7323
90.3600	0.1682
90.3700	0.0000
90.3800	0.0000
90.3900	0.0000
90.4000	0.0000
90.4100	0.0000
90.4200	0.0000
90.4300	0.0000
90.4400	0.0000
90.4500	0.0000
90.4600	0.0000
90.4700	0.0000
90.4800	16.7323
90.4900	0.1682
90.5000	0.0000
90.5100	0.0000
90.5200	0.0000
90.5300	0.0000
90.5400	0.0000
90.5500	0.0000
90.5600	8.2821
90.5700	16.9005
90.5800	0.1682
90.5900	8.2821
90.6000	8.6184
90.6100	0.0000
90.6200	16.7323
90.6300	8.6184
90.6400	0.0000
90.6500	8.2821
90.6600	16.9005
90.6700	8.6184
90.6800	0.0000
90.6900	0.0000
90.7000	0.0000
90.7100	0.0000
90.7200	8.2821
90.7300	8.6184
90.7400	0.0000
90.7500	0.0000
90.7600	0.0000
90.7700	0.0000
90.7800	0.0000
90.7900	25.1825
90.8000	17.0686
90.8100	0.0000
90.8200	0.0000
90.8300	0.0000
90.8400	16.7323
90.8500	8.6184
90.8600	0.0000
90.8700	0.0000
90.8800	0.0000
90.8900	0.0000
90.9000	0.0000
90.9100	16.7323
90.9200	0.1682
90.9300	0.0000
90.9400	0.0000
90.9500	0.0000
90.9600	16.7323
90.9700	8.6184
90.9800	0.0000
90.9900	0.0000
91.0000	0.0000
91.0100	0.0000
91.0200	0.0000
91.0300	8.2821
91.0400	25.1825
91.0500	8.7865
91.0600	0.0000
91.0700	0.0000
91.0800	0.0000
91.0900	0.0000
91.1000	0.0000
91.1100	0.0000
91.1200	0.0000
91.1300	0.0000
91.1400	0.0000
91.1500	16.7323
91.1600	8.6184
91.1700	16.7323
91.1800	16.9005
91.1900	0.1682
91.2000	16.7323
91.2100	8.6184
91.2200	0.0000
91.2300	0.0000
91.2400	0.0000
91.2500	0.0000
91.2600	0.0000
91.2700	0.0000
91.2800	0.0000
91.2900	8.2821
91.3000	16.9005
91.3100	0.1682
91.3200	16.7323
91.3300	0.1682
91.3400	0.0000
91.3500	0.0000
91.3600	0.0000
91.3700	0.0000
91.3800	0.0000
91.3900	0.0000
91.4000	8.2821
91.4100	17.0686
91.4200	0.0000
91.4300	0.0000
91.4400	0.0000
91.4500	0.0000
91.4600	0.0000
91.4700	0.0000
91.4800	0.0000
91.4900	0.0000
91.5000	0.0000
91.5100	8.2821
91.5200	17.0686
91.5300	0.0000
91.5400	0.0000
91.5500	0.0000
91.5600	0.0000
91.5700	0.0000
91.5800	0.0000
91.5900	0.0000
91.6000	0.0000
91.6100	0.0000
91.6200	16.7323
91.6300	8.6184
91.6400	0.0000
91.6500	0.0000
91.6600	0.0000
91.6700	0.0000
91.6800	0.0000
91.6900	0.0000
91.7000	0.0000
91.7100	8.2821
91.7200	16.9005
91.7300	0.1682
91.7400	0.0000
91.7500	0.0000
91.7600	0.0000
91.7700	0.0000
91.7800	0.0000
91.7900	16.7323
91.8000	0.1682
91.8100	0.0000
91.8200	0.0000
91.8300	0.0000
91.8400	8.2821
91.8500	8.6184
91.8600	0.0000
91.8700	0.0000
91.8800	0.0000
91.8900	0.0000
91.9000	16.7323
91.9100	0.1682
91.9200	0.0000
91.9300	0.0000
91.9400	0.0000
91.9500	0.0000
91.9600	0.0000
91.9700	0.0000
91.9800	0.0000
91.9900	0.0000
92.0000	0.0000
92.0100	0.0000
92.0200	0.0000
92.0300	0.0000
92.0400	0.0000
92.0500	0.0000
92.0600	0.0000
92.0700	0.0000
92.0800	0.0000
92.0900	16.5641
92.1000	25.5188
92.1100	0.1682
92.1200	16.7323
92.1300	0.1682
92.1400	0.0000
92.1500	0.0000
92.1600	0.0000
92.1700	0.0000
92.1800	0.0000
92.1900	0.0000
92.2000	0.0000
92.2100	0.0000
92.2200	0.0000
92.2300	0.0000
92.2400	0.0000
92.2500	0.0000
92.2600	0.0000
92.2700	0.0000
92.2800	0.0000
92.2900	16.7323
92.3000	0.1682
92.3100	16.7323
92.3200	0.1682
92.3300	8.2821
92.3400	16.9005
92.3500	0.1682
92.3600	0.0000
92.3700	0.0000
92.3800	16.7323
92.3900	8.6184
92.4000	0.0000
92.4100	0.0000
92.4200	0.0000
92.4300	16.7323
92.4400	8.6184
92.4500	16.7323
92.4600	0.1682
92.4700	0.0000
92.4800	0.0000
92.4900	0.0000
92.5000	0.0000
92.5100	0.0000
92.5200	0.0000
92.5300	0.0000
92.5400	0.0000
92.5500	0.0000
92.5600	25.1825
92.5700	0.1682
92.5800	0.0000
92.5900	0.0000
92.6000	0.0000
92.6100	0.0000
92.6200	0.0000
92.6300	0.0000
92.6400	0.0000
92.6500	0.0000
92.6600	0.0000
92.6700	0.0000
92.6800	0.0000
92.6900	0.0000
92.7000	0.0000
92.7100	0.0000
92.7200	0.0000
92.7300	0.0000
92.7400	0.0000
92.7500	0.0000
92.7600	0.0000
92.7700	0.0000
92.7800	0.0000
92.7900	8.2821
92.8000	16.9005
92.8100	8.6184
92.8200	0.0000
92.8300	0.0000
92.8400	0.0000
92.8500	0.0000
92.8600	0.0000
92.8700	0.0000
92.8800	0.0000
92.8900	0.0000
92.9000	0.0000
92.9100	0.0000
92.9200	0.0000
92.9300	0.0000
92.9400	0.0000
92.9500	0.0000
92.9600	0.0000
92.9700	25.1825
92.9800	0.1682
92.9900	0.0000
93.0000	25.1825
93.0100	0.1682
93.0200	0.0000
93.0300	0.0000
93.0400	0.0000
93.0500	0.0000
93.0600	16.7323
93.0700	17.0686
93.0800	0.0000
93.0900	0.0000
93.1000	0.0000
93.1100	0.0000
93.1200	0.0000
93.1300	0.0000
93.1400	0.0000
93.1500	0.0000
93.1600	0.0000
93.1700	0.0000
93.1800	0.0000
93.1900	0.0000
93.2000	0.0000
93.2100	0.0000
93.2200	0.0000
93.2300	0.0000
93.2400	16.7323
93.2500	0.1682
93.2600	0.0000
93.2700	0.0000
93.2800	0.0000
93.2900	0.0000
93.3000	0.0000
93.3100	0.0000
93.3200	0.0000
93.3300	0.0000
93.3400	0.0000
93.3500	0.0000
93.3600	0.0000
93.3700	16.7323
93.3800	0.1682
93.3900	0.0000
93.4000	8.2821
93.4100	8.6184
93.4200	8.2821
93.4300	8.6184
93.4400	0.0000
93.4500	0.0000
93.4600	0.0000
93.4700	0.0000
93.4800	0.0000
93.4900	0.0000
93.5000	16.7323
93.5100	0.1682
93.5200	0.0000
93.5300	0.0000
93.5400	0.0000
93.5500	0.0000
93.5600	25.0144
93.5700	0.3363
93.5800	8.2821
93.5900	16.9005
93.6000	16.9005
93.6100	0.1682
93.6200	8.2821
93.6300	16.9005
93.6400	0.1682
93.6500	0.0000
93.6600	0.0000
93.6700	0.0000
93.6800	0.0000
93.6900	0.0000
93.7000	0.0000
93.7100	0.0000
93.7200	25.0144
93.7300	17.0686
93.7400	8.6184
93.7500	0.0000
93.7600	0.0000
93.7700	0.0000
93.7800	0.0000
93.7900	0.0000
93.8000	0.0000
93.8100	0.0000
93.8200	16.7323
93.8300	0.1682
93.8400	0.0000
93.8500	16.5641
93.8600	17.0686
93.8700	8.4502
93.8800	8.6184
93.8900	0.0000
93.9000	0.0000
93.9100	0.0000
93.9200	0.0000
93.9300	0.0000
93.9400	0.0000
93.9500	0.0000
93.9600	0.0000
93.9700	0.0000
93.9800	0.0000
93.9900	0.0000
94.0000	16.7323
94.0100	0.1682
94.0200	8.2821
94.0300	16.9005
94.0400	0.1682
94.0500	0.0000
94.0600	0.0000
94.0700	0.0000
94.0800	0.0000
94.0900	0.0000
94.1000	0.0000
94.1100	0.0000
94.1200	0.0000
94.1300	0.0000
94.1400	0.0000
94.1500	0.0000
94.1600	0.0000
94.1700	16.7323
94.1800	8.6184
94.1900	0.0000
94.2000	0.0000
94.2100	0.0000
94.2200	0.0000
94.2300	0.0000
94.2400	0.0000
94.2500	0.0000
94.2600	0.0000
94.2700	0.0000
94.2800	0.0000
94.2900	0.0000
94.3000	0.0000
94.3100	0.0000
94.3200	0.0000
94.3300	0.0000
94.3400	8.2821
94.3500	8.6184
94.3600	0.0000
94.3700	0.0000
94.3800	8.2821
94.3900	8.6184
94.4000	0.0000
94.4100	0.0000
94.4200	8.2821
94.4300	8.6184
94.4400	0.0000
94.4500	16.7323
94.4600	0.1682
94.4700	0.0000
94.4800	16.7323
94.4900	0.1682
94.5000	0.0000
94.5100	0.0000
94.5200	0.0000
94.5300	0.0000
94.5400	0.0000
94.5500	0.0000
94.5600	0.0000
94.5700	0.0000
94.5800	0.0000
94.5900	0.0000
94.6000	0.0000
94.6100	0.0000
94.6200	0.0000
94.6300	0.0000
94.6400	0.0000
94.6500	8.2821
94.6600	17.0686
94.6700	0.0000
94.6800	0.0000
94.6900	0.0000
94.7000	0.0000
94.7100	0.0000
94.7200	0.0000
94.7300	0.0000
94.7400	0.0000
94.7500	0.0000
94.7600	16.7323
94.7700	8.6184
94.7800	0.0000
94.7900	0.0000
94.8000	0.0000
94.8100	0.0000
94.8200	0.0000
94.8300	8.2821
94.8400	0.1682
94.8500	0.0000
94.8600	0.0000
94.8700	16.7323
94.8800	0.1682
94.8900	0.0000
94.9000	0.0000
94.9100	0.0000
94.9200	0.0000
94.9300	0.0000
94.9400	0.0000
94.9500	0.0000
94.9600	0.0000
94.9700	0.0000
94.9800	0.0000
94.9900	0.0000
95.0000	0.0000
95.0100	0.0000
95.0200	0.0000
95.0300	0.0000
95.0400	0.0000
95.0500	0.0000
95.0600	0.0000
95.0700	0.0000
95.0800	0.0000
95.0900	0.0000
95.1000	0.0000
95.1100	0.0000
95.1200	0.0000
95.1300	0.0000
95.1400	0.0000
95.1500	0.0000
95.1600	0.0000
95.1700	0.0000
95.1800	0.0000
95.1900	0.0000
95.2000	0.0000
95.2100	0.0000
95.2200	0.0000
95.2300	0.0000
95.2400	0.0000
95.2500	0.0000
95.2600	0.0000
95.2700	0.0000
95.2800	0.0000
95.2900	0.0000
95.3000	0.0000
95.3100	0.0000
95.3200	0.0000
95.3300	16.7323
95.3400	0.1682
95.3500	0.0000
95.3600	16.7323
95.3700	0.1682
95.3800	0.0000
95.3900	8.2821
95.4000	8.6184
95.4100	16.5641
95.4200	8.7865
95.4300	0.0000
95.4400	8.2821
95.4500	16.9005
95.4600	0.1682
95.4700	0.0000
95.4800	0.0000
95.4900	0.0000
95.5000	25.0144
95.5100	8.7865
95.5200	0.0000
95.5300	0.0000
95.5400	0.0000
95.5500	16.5641
95.5600	17.0686
95.5700	17.0686
95.5800	0.0000
95.5900	0.0000
95.6000	0.0000
95.6100	0.0000
95.6200	0.0000
95.6300	0.0000
95.6400	0.0000
95.6500	0.0000
95.6600	0.0000
95.6700	25.0144
95.6800	0.3363
95.6900	16.5641
95.7000	25.6870
95.7100	0.0000
95.7200	0.0000
95.7300	0.0000
95.7400	0.0000
95.7500	0.0000
95.7600	0.0000
95.7700	0.0000
95.7800	0.0000
95.7900	16.7323
95.8000	0.1682
95.8100	0.0000
95.8200	0.0000
95.8300	0.0000
95.8400	0.0000
95.8500	0.0000
95.8600	16.7323
95.8700	0.1682
95.8800	25.0144
95.8900	8.6184
95.9000	16.9005
95.9100	16.9005
95.9200	8.4502
95.9300	8.6184
95.9400	0.0000
95.9500	0.0000
95.9600	0.0000
95.9700	25.1825
95.9800	0.1682
95.9900	8.2821
96.0000	8.6184
96.0100	0.0000
96.0200	0.0000
96.0300	25.0144
96.0400	0.3363
96.0500	0.0000
96.0600	0.0000
96.0700	0.0000
96.0800	8.2821
96.0900	8.6184
96.1000	0.0000
96.1100	0.0000
96.1200	0.0000
96.1300	0.0000
96.1400	0.0000
96.1500	33.2956
96.1600	8.9556
96.1700	0.0000
96.1800	0.0000
96.1900	8.2821
96.2000	8.6184
96.2100	8.4502
96.2200	0.0000
96.2300	0.0000
96.2400	0.0000
96.2500	0.0000
96.2600	0.0000
96.2700	0.0000
96.2800	0.0000
96.2900	8.2821
96.3000	25.3507
96.3100	8.6184
96.3200	0.0000
96.3300	16.5641
96.3400	17.2368
96.3500	16.5641
96.3600	8.7865
96.3700	8.2821
96.3800	16.9005
96.3900	0.1682
96.4000	25.0144
96.4100	16.9005
96.4200	8.7865
96.4300	0.0000
96.4400	0.0000
96.4500	0.0000
96.4600	8.2821
96.4700	25.1825
96.4800	0.3363
96.4900	0.0000
96.5000	0.0000
96.5100	0.0000
96.5200	8.2821
96.5300	17.0686
96.5400	0.0000
96.5500	0.0000
96.5600	16.7323
96.5700	0.1682
96.5800	8.2821
96.5900	8.6184
96.6000	24.8454
96.6100	17.4058
96.6200	0.0000
96.6300	0.0000
96.6400	16.7323
96.6500	0.1682
96.6600	0.0000
96.6700	0.0000
96.6800	0.0000
96.6900	0.0000
96.7000	0.0000
96.7100	0.0000
96.7200	0.0000
96.7300	0.0000
96.7400	0.0000
96.7500	0.0000
96.7600	0.0000
96.7700	0.0000
96.7800	0.0000
96.7900	25.1825
96.8000	17.0686
96.8100	0.0000
96.8200	0.0000
96.8300	16.7323
96.8400	0.1682
96.8500	8.2821
96.8600	16.9005
96.8700	16.9005
96.8800	0.1682
96.8900	24.8454
96.9000	33.9691
96.9100	25.3507
96.9200	17.2368
96.9300	0.0000
96.9400	16.7323
96.9500	0.1682
96.9600	0.0000
96.9700	25.1825
96.9800	0.1682
96.9900	0.0000
97.0000	0.0000
97.0100	0.0000
97.0200	0.0000
97.0300	33.1274
97.0400	17.5739
97.0500	8.2821
97.0600	8.6184
97.0700	0.0000
97.0800	0.0000
97.0900	0.0000
97.1000	0.0000
97.1100	16.5641
97.1200	25.6870
97.1300	0.0000
97.1400	0.0000
97.1500	0.0000
97.1600	16.5641
97.1700	8.7865
97.1800	0.0000
97.1900	0.0000
97.2000	0.0000
97.2100	0.0000
97.2200	0.0000
97.2300	0.0000
97.2400	0.0000
97.2500	16.7323
97.2600	8.4502
97.2700	16.9005
97.2800	17.0686
97.2900	25.1825
97.3000	0.1682
97.3100	0.0000
97.3200	0.0000
97.3300	0.0000
97.3400	0.0000
97.3500	0.0000
97.3600	25.1825
97.3700	25.3507
97.3800	0.1682
97.3900	0.0000
97.4000	0.0000
97.4100	0.0000
97.4200	8.2821
97.4300	8.6184
97.4400	0.0000
97.4500	0.0000
97.4600	16.7323
97.4700	33.8009
97.4800	25.1825
97.4900	0.3363
97.5000	8.2821
97.5100	8.6184
97.5200	0.0000
97.5300	0.0000
97.5400	0.0000
97.5500	0.0000
97.5600	0.0000
97.5700	0.0000
97.5800	0.0000
97.5900	0.0000
97.6000	0.0000
97.6100	8.2821
97.6200	25.3507
97.6300	0.1682
97.6400	0.0000
97.6500	0.0000
97.6600	0.0000
97.6700	8.2821
97.6800	16.9005
97.6900	16.9005
97.7000	8.6184
97.7100	0.0000
97.7200	25.1825
97.7300	33.6328
97.7400	0.3363
97.7500	0.0000
97.7600	0.0000
97.7700	0.0000
97.7800	0.0000
97.7900	0.0000
97.8000	0.0000
97.8100	0.0000
97.8200	16.5641
97.8300	8.7865
97.8400	8.2821
97.8500	16.9005
97.8600	58.8153
97.8700	8.9556
97.8800	0.0000
97.8900	8.2821
97.9000	8.6184
97.9100	0.0000
97.9200	16.7323
97.9300	0.1682
97.9400	33.4646
97.9500	8.7865
97.9600	0.0000
97.9700	25.1825
97.9800	0.1682
97.9900	0.0000
98.0000	0.0000
98.0100	0.0000
98.0200	25.1825
98.0300	16.9005
98.0400	8.6184
98.0500	0.0000
98.0600	0.0000
98.0700	16.5641
98.0800	17.0686
98.0900	0.1682
98.1000	0.0000
98.1100	0.0000
98.1200	16.5641
98.1300	25.3507
98.1400	8.7865
98.1500	8.2821
98.1600	33.8009
98.1700	16.9005
98.1800	0.1682
98.1900	0.0000
98.2000	0.0000
98.2100	16.7323
98.2200	33.8009
98.2300	33.8009
98.2400	42.0830
98.2500	17.0686
98.2600	25.1825
98.2700	41.9148
98.2800	25.8560
98.2900	50.5332
98.3000	16.9005
98.3100	25.5188
98.3200	16.9005
98.3300	42.2511
98.3400	16.7323
98.3500	25.5188
98.3600	25.3507
98.3700	33.4646
98.3800	25.5188
98.3900	33.8009
98.4000	25.3507
98.4100	8.6184
98.4200	0.1682
98.4300	8.2821
98.4400	0.1682
98.4500	16.7323
98.4600	0.1682
98.4700	16.7323
98.4800	0.1682
98.4900	0.0000
98.5000	0.0000
98.5100	16.7323
98.5200	25.1825
98.5300	17.0686
98.5400	25.1825
98.5500	8.7865
98.5600	0.0000
98.5700	0.0000
98.5800	16.7323
98.5900	8.4502
98.6000	25.3507
98.6100	0.1682
98.6200	8.4502
98.6300	8.2821
98.6400	33.6328
98.6500	8.6184
98.6600	17.0686
98.6700	8.2821
98.6800	8.6184
98.6900	33.4646
98.7000	41.7458
98.7100	34.4744
98.7200	16.9005
98.7300	33.4646
98.7400	59.3198
98.7500	33.6328
98.7600	42.2511
98.7700	50.5332
98.7800	17.4058
98.7900	0.1682
98.8000	0.0000
98.8100	33.4646
98.8200	8.6184
98.8300	33.8009
98.8400	0.1682
98.8500	50.1960
98.8600	33.9691
98.8700	33.8009
98.8800	25.5188
98.8900	25.0144
98.9000	34.1372
98.9100	8.6184
98.9200	0.0000
98.9300	50.1960
98.9400	25.6870
98.9500	0.1682
98.9600	0.0000
98.9700	16.7323
98.9800	50.5332
98.9900	33.8009
99.0000	33.6328
99.0100	25.5188
99.0200	33.8009
99.0300	8.6184
99.0400	42.0830
99.0500	50.5332
99.0600	42.2511
99.0700	25.5188
99.0800	42.0830
99.0900	42.2511
99.1000	25.6870
99.1100	42.2511
99.1200	58.4781
99.1300	17.5739
99.1400	41.9148
99.1500	8.9556
99.1600	41.7458
99.1700	17.2368
99.1800	8.6184
99.1900	8.2821
99.2000	58.4781
99.2100	25.8560
99.2200	33.6328
99.2300	50.8695
99.2400	92.2790
99.2500	51.2067
99.2600	17.2368
99.2700	8.6184
99.2800	41.4095
99.2900	51.0377
99.3000	8.9556
99.3100	25.0144
99.3200	33.6328
99.3300	59.1516
99.3400	42.0830
99.3500	42.5875
99.3600	50.3650
99.3700	25.5188
99.3800	59.1516
99.3900	84.5023
99.4000	17.4058
99.4100	0.0000
99.4200	24.8454
99.4300	42.2511
99.4400	17.2368
99.4500	0.1682
99.4600	66.4239
99.4700	34.8107
99.4800	33.4646
99.4900	50.5332
99.5000	76.2202
99.5100	33.9691
99.5200	25.6870
99.5300	58.6463
99.5400	67.6018
99.5500	33.8009
99.5600	59.3198
99.5700	50.7014
99.5800	58.9834
99.5900	25.5188
99.6000	0.3363
99.6100	16.7323
99.6200	58.9834
99.6300	67.4337
99.6400	25.5188
99.6500	50.3650
99.6600	59.4879
99.6700	66.9283
99.6800	76.0521
99.6900	51.3749
99.7000	84.1660
99.7100	17.4058
99.7200	0.1682
99.7300	50.3650
99.7400	25.3507
99.7500	17.0686
99.7600	41.9148
99.7700	42.4193
99.7800	42.0830
99.7900	33.9691
99.8000	50.5332
99.8100	25.3507
99.8200	76.0521
99.8300	33.9691
99.8400	50.8695
99.8500	50.3650
99.8600	59.4879
99.8700	16.9005
99.8800	50.1960
99.8900	51.2067
99.9000	25.3507
99.9100	33.2956
99.9200	84.3341
99.9300	59.4879
99.9400	59.3198
99.9500	42.0830
99.9600	8.7865
99.9700	41.9148
99.9800	34.1372
99.9900	58.8153
100.0000	92.6162
100.0100	76.2202
100.0200	75.8839
100.0300	59.3198
100.0400	42.2511
100.0500	76.2202
100.0600	75.8839
100.0700	59.3198
100.0800	75.8839
100.0900	42.4193
100.1000	50.5332
100.1100	42.4193
100.1200	92.7843
100.1300	84.3341
100.1400	92.7843
100.1500	34.3062
100.1600	50.8695
100.1700	66.9283
100.1800	34.6426
100.1900	109.1795
100.2000	59.4879
100.2100	100.8974
100.2200	93.1207
100.2300	84.5023
100.2400	26.1923
100.2500	16.5641
100.2600	92.2790
100.2700	76.2202
100.2800	126.4171
100.2900	127.0897
100.3000	192.8401
100.3100	211.0876
100.3200	119.6502
100.3300	109.8530
100.3400	59.4879
100.3500	134.6983
100.3600	143.3176
100.3700	119.3130
100.3800	126.5853
100.3900	117.7979
100.4000	102.4125
100.4100	142.4759
100.4200	143.6539
100.4300	102.2444
100.4400	133.8567
100.4500	202.9736
100.4600	143.8220
100.4700	110.6946
100.4800	92.9525
100.4900	134.6983
100.5000	235.9329
100.5100	218.6961
100.5200	178.9699
100.5300	143.9902
100.5400	193.1773
100.5500	253.6750
100.5600	219.7059
100.5700	253.0015
100.5800	262.2934
100.5900	303.3666
100.6000	254.1803
100.6100	278.1840
100.6200	228.6615
100.6300	336.6622
100.6400	221.3892
100.6500	278.0159
100.6600	379.9240
100.6700	254.0122
100.6800	329.2226
100.6900	297.1050
100.7000	344.7761
100.7100	429.4465
100.7200	389.5522
100.7300	413.8930
100.7400	472.7075
100.7500	631.2422
100.7600	559.3984
100.7700	574.6155
100.7800	473.7181
100.7900	591.1796
100.8000	792.3019
100.8100	709.8192
100.8200	661.1374
100.8300	724.3629
100.8400	919.3916
100.8500	829.9738
100.8600	1046.3132
100.8700	1088.3961
100.8800	1056.6149
100.8900	1399.2031
100.9000	1721.8270
100.9100	1588.1376
100.9200	1841.6445
100.9300	2276.0064
100.9400	2289.6756
100.9500	2723.7004
100.9600	2996.6326
100.9700	3701.4019
100.9800	5021.6911
100.9900	5758.6795
101.0000	8010.5808
101.0100	11064.5476
101.0200	16952.9426
101.0300	27004.1694
101.0400	44586.4332
101.0500	78149.9315
101.0600	145457.2132
101.0700	233027.1770
101.0800	444464.6147
101.0900	622090.8239
101.1000	655331.3815
101.1100	521612.5917
101.1200	353604.5909
101.1300	218861.9701
101.1400	136299.1875
101.1500	93584.0590
101.1600	51815.1827
101.1700	30262.3885
101.1800	20204.8673
101.1900	14132.9563
101.2000	10123.0703
101.2100	8041.1504
101.2200	6329.4908
101.2300	5226.2811
101.2400	4495.4874
101.2500	4112.3662
101.2600	3460.8569
101.2700	3181.6623
101.2800	2565.4690
101.2900	2433.6658
101.3000	1996.9469
101.3100	2105.7902
101.3200	1836.2245
101.3300	1465.2561
101.3400	1386.6790
101.3500	1335.9777
101.3600	1483.8736
101.3700	1278.8457
101.3800	983.4249
101.3900	930.0304
101.4000	1061.3622
101.4100	830.9836
101.4200	837.0779
101.4300	854.4829
101.4400	735.6752
101.4500	710.1555
101.4600	633.4308
101.4700	609.2581
101.4800	709.4828
101.4900	576.4670
101.5000	398.1705
101.5100	531.1864
101.5200	322.6238
101.5300	380.0921
101.5400	404.7693
101.5500	397.8342
101.5600	414.0612
101.5700	288.6547
101.5800	295.2527
101.5900	246.2346
101.6000	304.0400
101.6100	336.1577
101.6200	280.3726
101.6300	236.6064
101.6400	253.8432
101.6500	236.9427
101.6600	160.5543
101.6700	228.3243
101.6800	310.8070
101.6900	153.6192
101.7000	203.3108
101.7100	160.3862
101.7200	85.6802
101.7300	159.2074
101.7400	194.3553
101.7500	184.8952
101.7600	145.3372
101.7700	151.9360
101.7800	143.8220
101.7900	126.4171
101.8000	152.6094
101.8100	134.6983
101.8200	134.6983
101.8300	136.0453
101.8400	101.2346
101.8500	168.4992
101.8600	177.9601
101.8700	259.9375
101.8800	338.1773
101.8900	270.5755
101.9000	495.5332
101.9100	682.7852
101.9200	1178.6556
101.9300	2183.9294
101.9400	4193.6025
101.9500	8027.5488
101.9600	15176.6101
101.9700	28725.1875
101.9800	62482.5026
101.9900	133537.7123
102.0000	193161.5744
102.0100	153779.9454
102.0200	93984.5866
102.0300	55888.0937
102.0400	31831.8430
102.0500	17975.3872
102.0600	8779.2828
102.0700	4168.3531
102.0800	1928.6049
102.0900	911.4129
102.1000	551.2844
102.1100	416.2498
102.1200	263.1350
102.1300	269.9020
102.1400	212.0973
102.1500	185.3997
102.1600	228.3243
102.1700	85.8492
102.1800	109.5167
102.1900	76.0521
102.2000	134.8673
102.2100	1.3470
102.2200	116.2836
102.2300	94.1305
102.2400	84.5023
102.2500	84.3341
102.2600	93.6260
102.2700	42.4193
102.2800	58.6463
102.2900	76.2202
102.3000	25.6870
102.3100	58.6463
102.3200	59.4879
102.3300	17.2368
102.3400	16.7323
102.3500	66.7602
102.3600	68.1072
102.3700	51.0377
102.3800	58.6463
102.3900	51.0377
102.4000	50.5332
102.4100	25.3507
102.4200	50.7014
102.4300	42.2511
102.4400	42.4193
102.4500	92.6162
102.4600	34.3062
102.4700	41.9148
102.4800	33.9691
102.4900	33.9691
102.5000	25.3507
102.5100	50.3650
102.5200	51.0377
102.5300	33.6328
102.5400	8.7865
102.5500	24.8454
102.5600	75.8839
102.5700	25.8560
102.5800	17.0686
102.5900	16.7323
102.6000	16.7323
102.6100	42.2511
102.6200	8.7865
102.6300	0.0000
102.6400	25.0144
102.6500	41.9148
102.6600	25.6870
102.6700	25.3507
102.6800	42.4193
102.6900	42.0830
102.7000	58.8153
102.7100	25.6870
102.7200	33.6328
102.7300	50.3650
102.7400	59.4879
102.7500	8.7865
102.7600	42.0830
102.7700	67.2655
102.7800	25.8560
102.7900	41.7458
102.8000	25.8560
102.8100	25.1825
102.8200	33.8009
102.8300	25.5188
102.8400	0.1682
102.8500	0.0000
102.8600	16.7323
102.8700	0.1682
102.8800	25.0144
102.8900	42.0830
102.9000	25.5188
102.9100	17.0686
102.9200	8.6184
102.9300	0.0000
102.9400	0.0000
102.9500	16.5641
102.9600	17.2368
102.9700	41.9148
102.9800	8.7865
102.9900	0.0000
103.0000	0.0000
103.0100	8.2821
103.0200	42.0830
103.0300	25.5188
103.0400	33.6328
103.0500	8.7865
103.0600	16.5641
103.0700	25.5188
103.0800	58.4781
103.0900	34.3062
103.1000	42.4193
103.1100	50.3650
103.1200	17.4058
103.1300	0.0000
103.1400	33.4646
103.1500	25.3507
103.1600	17.0686
103.1700	16.9005
103.1800	0.1682
103.1900	0.0000
103.2000	16.7323
103.2100	0.1682
103.2200	16.7323
103.2300	17.0686
103.2400	41.9148
103.2500	33.8009
103.2600	50.7014
103.2700	8.6184
103.2800	17.0686
103.2900	0.0000
103.3000	25.1825
103.3100	0.1682
103.3200	0.0000
103.3300	16.5641
103.3400	50.7014
103.3500	33.6328
103.3600	8.9556
103.3700	16.7323
103.3800	8.6184
103.3900	0.0000
103.4000	0.0000
103.4100	8.2821
103.4200	33.6328
103.4300	8.7865
103.4400	50.3650
103.4500	25.5188
103.4600	8.6184
103.4700	33.4646
103.4800	50.5332
103.4900	25.5188
103.5000	25.3507
103.5100	42.2511
103.5200	0.3363
103.5300	16.5641
103.5400	8.7865
103.5500	33.4646
103.5600	42.2511
103.5700	50.1960
103.5800	17.7421
103.5900	0.0000
103.6000	25.1825
103.6100	0.1682
103.6200	16.7323
103.6300	25.1825
103.6400	8.7865
103.6500	50.0279
103.6600	17.4058
103.6700	8.6184
103.6800	16.7323
103.6900	25.1825
103.7000	0.3363
103.7100	8.2821
103.7200	16.9005
103.7300	16.9005
103.7400	8.6184
103.7500	8.2821
103.7600	25.1825
103.7700	25.6870
103.7800	0.0000
103.7900	0.0000
103.8000	50.3650
103.8100	16.9005
103.8200	25.6870
103.8300	0.0000
103.8400	24.8454
103.8500	25.6870
103.8600	42.0830
103.8700	42.0830
103.8800	0.5053
103.8900	0.0000
103.9000	0.0000
103.9100	8.2821
103.9200	17.0686
103.9300	8.2821
103.9400	25.3507
103.9500	42.0830
103.9600	8.6184
103.9700	33.8009
103.9800	33.4646
103.9900	17.4058
104.0000	0.0000
104.0100	25.0144
104.0200	8.7865
104.0300	41.9148
104.0400	0.3363
104.0500	16.5641
104.0600	25.5188
104.0700	17.0686
104.0800	16.7323
104.0900	8.6184
104.1000	0.0000
104.1100	0.0000
104.1200	8.2821
104.1300	25.3507
104.1400	25.3507
104.1500	8.6184
104.1600	0.0000
104.1700	41.7458
104.1800	0.5053
104.1900	16.7323
104.2000	16.7323
104.2100	8.7865
104.2200	16.7323
104.2300	8.4502
104.2400	17.0686
104.2500	0.0000
104.2600	41.7458
104.2700	8.9556
104.2800	0.0000
104.2900	8.2821
104.3000	16.9005
104.3100	16.9005
104.3200	33.8009
104.3300	0.1682
104.3400	8.2821
104.3500	8.6184
104.3600	8.2821
104.3700	8.6184
104.3800	25.0144
104.3900	0.3363
104.4000	0.0000
104.4100	0.0000
104.4200	8.2821
104.4300	8.6184
104.4400	0.0000
104.4500	0.0000
104.4600	0.0000
104.4700	0.0000
104.4800	0.0000
104.4900	16.7323
104.5000	33.4646
104.5100	17.2368
104.5200	8.4502
104.5300	8.6184
104.5400	0.0000
104.5500	0.0000
104.5600	8.2821
104.5700	25.1825
104.5800	17.0686
104.5900	8.6184
104.6000	16.7323
104.6100	17.0686
104.6200	8.4502
104.6300	0.0000
104.6400	16.7323
104.6500	0.1682
104.6600	0.0000
104.6700	16.5641
104.6800	25.3507
104.6900	25.3507
104.7000	8.7865
104.7100	0.0000
104.7200	0.0000
104.7300	0.0000
104.7400	16.7323
104.7500	8.6184
104.7600	16.5641
104.7700	8.7865
104.7800	0.0000
104.7900	16.5641
104.8000	8.7865
104.8100	16.7323
104.8200	0.1682
104.8300	25.0144
104.8400	0.3363
104.8500	8.2821
104.8600	17.0686
104.8700	16.7323
104.8800	8.6184
104.8900	16.7323
104.9000	0.1682
104.9100	25.0144
104.9200	0.3363
104.9300	0.0000
104.9400	0.0000
104.9500	16.5641
104.9600	25.3507
104.9700	17.0686
104.9800	17.0686
104.9900	0.0000
105.0000	16.5641
105.0100	25.5188
105.0200	16.9005
105.0300	8.6184
105.0400	16.7323
105.0500	0.1682
105.0600	0.0000
105.0700	16.7323
105.0800	0.1682
105.0900	0.0000
105.1000	8.2821
105.1100	16.9005
105.1200	0.1682
105.1300	0.0000
105.1400	0.0000
105.1500	0.0000
105.1600	0.0000
105.1700	0.0000
105.1800	0.0000
105.1900	25.0144
105.2000	0.3363
105.2100	16.7323
105.2200	8.4502
105.2300	8.6184
105.2400	0.0000
105.2500	8.2821
105.2600	25.1825
105.2700	17.0686
105.2800	8.6184
105.2900	25.1825
105.3000	0.1682
105.3100	8.2821
105.3200	8.6184
105.3300	41.7458
105.3400	0.5053
105.3500	25.1825
105.3600	8.6184
105.3700	25.0144
105.3800	0.3363
105.3900	16.5641
105.4000	8.7865
105.4100	8.2821
105.4200	16.9005
105.4300	8.6184
105.4400	0.0000
105.4500	0.0000
105.4600	0.0000
105.4700	8.2821
105.4800	16.9005
105.4900	0.1682
105.5000	0.0000
105.5100	16.7323
105.5200	42.0830
105.5300	25.5188
105.5400	8.6184
105.5500	0.0000
105.5600	0.0000
105.5700	16.5641
105.5800	17.0686
105.5900	0.1682
105.6000	0.0000
105.6100	16.5641
105.6200	17.2368
105.6300	0.0000
105.6400	0.0000
105.6500	0.0000
105.6600	8.2821
105.6700	17.0686
105.6800	0.0000
105.6900	25.0144
105.7000	8.7865
105.7100	0.0000
105.7200	0.0000
105.7300	0.0000
105.7400	0.0000
105.7500	0.0000
105.7600	0.0000
105.7700	0.0000
105.7800	0.0000
105.7900	0.0000
105.8000	0.0000
105.8100	25.0144
105.8200	8.6184
105.8300	8.6184
105.8400	0.0000
105.8500	0.0000
105.8600	0.0000
105.8700	0.0000
105.8800	0.0000
105.8900	0.0000
105.9000	0.0000
105.9100	0.0000
105.9200	16.7323
105.9300	0.1682
105.9400	0.0000
105.9500	0.0000
105.9600	0.0000
105.9700	0.0000
105.9800	8.2821
105.9900	16.9005
106.0000	8.6184
106.0100	16.7323
106.0200	0.1682
106.0300	8.2821
106.0400	16.9005
106.0500	25.3507
106.0600	0.1682
106.0700	0.0000
106.0800	0.0000
106.0900	25.1825
106.1000	8.6184
106.1100	16.7323
106.1200	8.6184
106.1300	0.0000
106.1400	0.0000
106.1500	0.0000
106.1600	16.7323
106.1700	0.1682
106.1800	0.0000
106.1900	0.0000
106.2000	0.0000
106.2100	8.2821
106.2200	8.6184
106.2300	0.0000
106.2400	8.2821
106.2500	17.0686
106.2600	16.7323
106.2700	0.1682
106.2800	0.0000
106.2900	0.0000
106.3000	0.0000
106.3100	0.0000
106.3200	0.0000
106.3300	16.5641
106.3400	8.7865
106.3500	0.0000
106.3600	16.7323
106.3700	0.1682
106.3800	0.0000
106.3900	0.0000
106.4000	0.0000
106.4100	8.2821
106.4200	16.9005
106.4300	0.1682
106.4400	8.2821
106.4500	16.9005
106.4600	16.9005
106.4700	16.9005
106.4800	0.1682
106.4900	0.0000
106.5000	25.1825
106.5100	16.9005
106.5200	16.9005
106.5300	8.4502
106.5400	16.9005
106.5500	8.4502
106.5600	16.9005
106.5700	0.1682
106.5800	0.0000
106.5900	16.5641
106.6000	8.7865
106.6100	8.2821
106.6200	25.1825
106.6300	0.3363
106.6400	0.0000
106.6500	0.0000
106.6600	0.0000
106.6700	0.0000
106.6800	16.5641
106.6900	8.7865
106.7000	0.0000
106.7100	0.0000
106.7200	16.7323
106.7300	8.6184
106.7400	0.0000
106.7500	0.0000
106.7600	0.0000
106.7700	0.0000
106.7800	33.2956
106.7900	8.9556
106.8000	0.0000
106.8100	0.0000
106.8200	0.0000
106.8300	0.0000
106.8400	0.0000
106.8500	8.2821
106.8600	25.3507
106.8700	16.7323
106.8800	8.7865
106.8900	0.0000
106.9000	0.0000
106.9100	0.0000
106.9200	0.0000
106.9300	0.0000
106.9400	0.0000
106.9500	0.0000
106.9600	16.7323
106.9700	25.1825
106.9800	0.3363
106.9900	16.5641
107.0000	17.0686
107.0100	0.1682
107.0200	0.0000
107.0300	0.0000
107.0400	0.0000
107.0500	0.0000
107.0600	0.0000
107.0700	0.0000
107.0800	0.0000
107.0900	0.0000
107.1000	0.0000
107.1100	0.0000
107.1200	0.0000
107.1300	0.0000
107.1400	0.0000
107.1500	0.0000
107.1600	25.0144
107.1700	8.7865
107.1800	0.0000
107.1900	16.7323
107.2000	0.1682
107.2100	0.0000
107.2200	8.2821
107.2300	8.6184
107.2400	0.0000
107.2500	16.7323
107.2600	8.4502
107.2700	8.6184
107.2800	16.7323
107.2900	0.1682
107.3000	25.1825
107.3100	0.1682
107.3200	0.0000
107.3300	0.0000
107.3400	0.0000
107.3500	0.0000
107.3600	0.0000
107.3700	16.7323
107.3800	8.6184
107.3900	16.7323
107.4000	0.1682
107.4100	0.0000
107.4200	0.0000
107.4300	0.0000
107.4400	0.0000
107.4500	0.0000
107.4600	0.0000
107.4700	0.0000
107.4800	0.0000
107.4900	8.2821
107.5000	17.0686
107.5100	16.5641
107.5200	8.7865
107.5300	0.0000
107.5400	0.0000
107.5500	0.0000
107.5600	0.0000
107.5700	16.7323
107.5800	8.4502
107.5900	8.6184
107.6000	0.0000
107.6100	0.0000
107.6200	0.0000
107.6300	0.0000
107.6400	0.0000
107.6500	8.2821
107.6600	8.6184
107.6700	0.0000
107.6800	0.0000
107.6900	16.7323
107.7000	0.1682
107.7100	0.0000
107.7200	0.0000
107.7300	8.2821
107.7400	8.6184
107.7500	0.0000
107.7600	0.0000
107.7700	0.0000
107.7800	16.7323
107.7900	0.1682
107.8000	0.0000
107.8100	8.2821
107.8200	8.6184
107.8300	25.1825
107.8400	0.1682
107.8500	0.0000
107.8600	8.2821
107.8700	8.6184
107.8800	0.0000
107.8900	0.0000
107.9000	0.0000
107.9100	0.0000
107.9200	16.5641
107.9300	8.7865
107.9400	0.0000
107.9500	0.0000
107.9600	16.7323
107.9700	0.1682
107.9800	0.0000
107.9900	0.0000
108.0000	0.0000
108.0100	0.0000
108.0200	0.0000
108.0300	25.0144
108.0400	0.3363
108.0500	0.0000
108.0600	0.0000
108.0700	0.0000
108.0800	8.2821
108.0900	8.6184
108.1000	0.0000
108.1100	0.0000
108.1200	8.2821
108.1300	25.1825
108.1400	0.3363
108.1500	8.2821
108.1600	16.9005
108.1700	0.1682
108.1800	0.0000
108.1900	0.0000
108.2000	0.0000
108.2100	0.0000
108.2200	0.0000
108.2300	0.0000
108.2400	0.0000
108.2500	0.0000
108.2600	0.0000
108.2700	0.0000
108.2800	0.0000
108.2900	0.0000
108.3000	16.5641
108.3100	17.0686
108.3200	0.1682
108.3300	0.0000
108.3400	0.0000
108.3500	0.0000
108.3600	25.1825
108.3700	8.6184
108.3800	0.0000
108.3900	0.0000
108.4000	8.2821
108.4100	8.6184
108.4200	0.0000
108.4300	0.0000
108.4400	0.0000
108.4500	0.0000
108.4600	0.0000
108.4700	0.0000
108.4800	0.0000
108.4900	0.0000
108.5000	0.0000
108.5100	0.0000
108.5200	0.0000
108.5300	0.0000
108.5400	0.0000
108.5500	0.0000
108.5600	0.0000
108.5700	16.7323
108.5800	8.6184
108.5900	0.0000
108.6000	0.0000
108.6100	0.0000
108.6200	0.0000
108.6300	0.0000
108.6400	0.0000
108.6500	8.2821
108.6600	8.6184
108.6700	16.7323
108.6800	0.1682
108.6900	0.0000
108.7000	0.0000
108.7100	8.2821
108.7200	8.6184
108.7300	16.7323
108.7400	0.1682
108.7500	16.7323
108.7600	8.6184
108.7700	16.7323
108.7800	0.1682
108.7900	0.0000
108.8000	0.0000
108.8100	0.0000
108.8200	0.0000
108.8300	0.0000
108.8400	8.2821
108.8500	0.1682
108.8600	0.0000
108.8700	0.0000
108.8800	0.0000
108.8900	0.0000
108.9000	0.0000
108.9100	0.0000
108.9200	0.0000
108.9300	0.0000
108.9400	0.0000
108.9500	8.2821
108.9600	8.6184
108.9700	0.0000
108.9800	0.0000
108.9900	0.0000
109.0000	0.0000
109.0100	0.0000
109.0200	0.0000
109.0300	0.0000
109.0400	0.0000
109.0500	0.0000
109.0600	0.0000
109.0700	0.0000
109.0800	0.0000
109.0900	0.0000
109.1000	0.0000
109.1100	0.0000
109.1200	0.0000
109.1300	0.0000
109.1400	0.0000
109.1500	0.0000
109.1600	16.7323
109.1700	0.1682
109.1800	0.0000
109.1900	0.0000
109.2000	0.0000
109.2100	0.0000
109.2200	0.0000
109.2300	0.0000
109.2400	0.0000
109.2500	0.0000
109.2600	33.4646
109.2700	8.7865
109.2800	0.0000
109.2900	0.0000
109.3000	0.0000
109.3100	0.0000
109.3200	0.0000
109.3300	0.0000
109.3400	0.0000
109.3500	0.0000
109.3600	0.0000
109.3700	8.2821
109.3800	16.9005
109.3900	8.6184
109.4000	0.0000
109.4100	0.0000
109.4200	0.0000
109.4300	0.0000
109.4400	0.0000
109.4500	0.0000
109.4600	0.0000
109.4700	0.0000
109.4800	0.0000
109.4900	0.0000
109.5000	16.5641
109.5100	8.7865
109.5200	0.0000
109.5300	16.7323
109.5400	25.1825
109.5500	0.3363
109.5600	0.0000
109.5700	0.0000
109.5800	0.0000
109.5900	0.0000
109.6000	0.0000
109.6100	0.0000
109.6200	0.0000
109.6300	0.0000
109.6400	0.0000
109.6500	0.0000
109.6600	0.0000
109.6700	0.0000
109.6800	0.0000
109.6900	0.0000
109.7000	0.0000
109.7100	0.0000
109.7200	0.0000
109.7300	0.0000
109.7400	0.0000
109.7500	0.0000
109.7600	16.5641
109.7700	8.7865
109.7800	0.0000
109.7900	0.0000
109.8000	8.2821
109.8100	8.6184
109.8200	0.0000
109.8300	0.0000
109.8400	0.0000
109.8500	0.0000
109.8600	0.0000
109.8700	0.0000
109.8800	0.0000
109.8900	0.0000
109.9000	0.0000
109.9100	0.0000
109.9200	0.0000
109.9300	0.0000
109.9400	0.0000
109.9500	0.0000
109.9600	0.0000
109.9700	8.2821
109.9800	8.6184
109.9900	0.0000
110.0000	8.2821
110.0100	8.6184
110.0200	0.0000
110.0300	0.0000
110.0400	0.0000
110.0500	0.0000
110.0600	0.0000
110.0700	0.0000
110.0800	0.0000
110.0900	0.0000
110.1000	0.0000
110.1100	0.0000
110.1200	0.0000
110.1300	0.0000
110.1400	0.0000
110.1500	0.0000
110.1600	0.0000
110.1700	0.0000
110.1800	0.0000
110.1900	0.0000
110.2000	0.0000
110.2100	25.1825
110.2200	0.1682
110.2300	0.0000
110.2400	0.0000
110.2500	0.0000
110.2600	0.0000
110.2700	0.0000
110.2800	0.0000
110.2900	0.0000
110.3000	0.0000
110.3100	0.0000
110.3200	0.0000
110.3300	0.0000
110.3400	0.0000
110.3500	0.0000
110.3600	0.0000
110.3700	0.0000
110.3800	25.0144
110.3900	0.3363
110.4000	0.0000
110.4100	0.0000
110.4200	8.2821
110.4300	16.9005
110.4400	25.1825
110.4500	17.0686
110.4600	0.1682
110.4700	0.0000
110.4800	0.0000
110.4900	16.7323
110.5000	0.1682
110.5100	0.0000
110.5200	0.0000
110.5300	0.0000
110.5400	16.5641
110.5500	17.0686
110.5600	0.1682
110.5700	0.0000
110.5800	0.0000
110.5900	0.0000
110.6000	33.4646
110.6100	0.3363
110.6200	8.2821
110.6300	8.6184
110.6400	0.0000
110.6500	0.0000
110.6600	8.2821
110.6700	8.6184
110.6800	0.0000
110.6900	0.0000
110.7000	0.0000
110.7100	0.0000
110.7200	0.0000
110.7300	0.0000
110.7400	0.0000
110.7500	0.0000
110.7600	0.0000
110.7700	8.2821
110.7800	17.0686
110.7900	16.7323
110.8000	0.1682
110.8100	16.7323
110.8200	0.1682
110.8300	0.0000
110.8400	0.0000
110.8500	0.0000
110.8600	0.0000
110.8700	0.0000
110.8800	0.0000
110.8900	8.2821
110.9000	16.9005
110.9100	0.1682
110.9200	0.0000
110.9300	8.2821
110.9400	16.9005
110.9500	8.6184
110.9600	0.0000
110.9700	0.0000
110.9800	0.0000
110.9900	0.0000
111.0000	0.0000
111.0100	0.0000
111.0200	0.0000
111.0300	0.0000
111.0400	0.0000
111.0500	0.0000
111.0600	0.0000
111.0700	0.0000
111.0800	0.0000
111.0900	0.0000
111.1000	0.0000
111.1100	0.0000
111.1200	8.2821
111.1300	8.6184
111.1400	25.0144
111.1500	0.3363
111.1600	0.0000
111.1700	0.0000
111.1800	0.0000
111.1900	8.2821
111.2000	17.0686
111.2100	0.0000
111.2200	0.0000
111.2300	0.0000
111.2400	0.0000
111.2500	0.0000
111.2600	0.0000
111.2700	0.0000
111.2800	0.0000
111.2900	0.0000
111.3000	0.0000
111.3100	0.0000
111.3200	0.0000
111.3300	8.2821
111.3400	25.3507
111.3500	8.4502
111.3600	8.6184
111.3700	0.0000
111.3800	0.0000
111.3900	0.0000
111.4000	0.0000
111.4100	0.0000
111.4200	8.2821
111.4300	8.6184
111.4400	8.2821
111.4500	8.6184
111.4600	0.0000
111.4700	0.0000
111.4800	0.0000
111.4900	0.0000
111.5000	0.0000
111.5100	0.0000
111.5200	0.0000
111.5300	0.0000
111.5400	0.0000
111.5500	16.5641
111.5600	17.0686
111.5700	16.9005
111.5800	0.1682
111.5900	0.0000
111.6000	25.0144
111.6100	0.3363
111.6200	0.0000
111.6300	0.0000
111.6400	8.2821
111.6500	8.6184
111.6600	0.0000
111.6700	8.2821
111.6800	8.6184
111.6900	0.0000
111.7000	0.0000
111.7100	24.8454
111.7200	17.4058
111.7300	0.0000
111.7400	0.0000
111.7500	0.0000
111.7600	0.0000
111.7700	0.0000
111.7800	0.0000
111.7900	0.0000
111.8000	0.0000
111.8100	0.0000
111.8200	0.0000
111.8300	0.0000
111.8400	0.0000
111.8500	0.0000
111.8600	0.0000
111.8700	0.0000
111.8800	0.0000
111.8900	0.0000
111.9000	0.0000
111.9100	0.0000
111.9200	0.0000
111.9300	0.0000
111.9400	0.0000
111.9500	0.0000
111.9600	0.0000
111.9700	0.0000
111.9800	0.0000
111.9900	0.0000
112.0000	0.0000
112.0100	0.0000
112.0200	16.7323
112.0300	8.6184
112.0400	0.0000
112.0500	0.0000
112.0600	0.0000
112.0700	0.0000
112.0800	0.0000
112.0900	0.0000
112.1000	0.0000
112.1100	0.0000
112.1200	0.0000
112.1300	0.0000
112.1400	0.0000
112.1500	0.0000
112.1600	0.0000
112.1700	0.0000
112.1800	0.0000
112.1900	0.0000
112.2000	0.0000
112.2100	0.0000
112.2200	0.0000
112.2300	0.0000
112.2400	0.0000
112.2500	0.0000
112.2600	0.0000
112.2700	0.0000
112.2800	0.0000
112.2900	0.0000
112.3000	0.0000
112.3100	0.0000
112.3200	0.0000
112.3300	0.0000
112.3400	0.0000
112.3500	0.0000
112.3600	0.0000
112.3700	0.0000
112.3800	0.0000
112.3900	8.2821
112.4000	16.9005
112.4100	0.1682
112.4200	0.0000
112.4300	8.2821
112.4400	16.9005
112.4500	8.6184
112.4600	0.0000
112.4700	0.0000
112.4800	0.0000
112.4900	0.0000
112.5000	0.0000
112.5100	0.0000
112.5200	0.0000
112.5300	0.0000
112.5400	0.0000
112.5500	0.0000
112.5600	0.0000
112.5700	0.0000
112.5800	0.0000
112.5900	0.0000
112.6000	0.0000
112.6100	0.0000
112.6200	0.0000
112.6300	0.0000
112.6400	0.0000
112.6500	16.7323
112.6600	8.6184
112.6700	8.2821
112.6800	16.9005
112.6900	16.9005
112.7000	0.1682
112.7100	0.0000
112.7200	0.0000
112.7300	16.7323
112.7400	8.6184
112.7500	0.0000
112.7600	0.0000
112.7700	0.0000
112.7800	0.0000
112.7900	0.0000
112.8000	0.0000
112.8100	16.7323
112.8200	8.6184
112.8300	0.0000
112.8400	0.0000
112.8500	0.0000
112.8600	0.0000
112.8700	0.0000
112.8800	0.0000
112.8900	0.0000
112.9000	0.0000
112.9100	0.0000
112.9200	16.7323
112.9300	25.3507
112.9400	0.1682
112.9500	8.2821
112.9600	8.6184
112.9700	0.0000
112.9800	0.0000
112.9900	0.0000
113.0000	0.0000
113.0100	0.0000
113.0200	0.0000
113.0300	0.0000
113.0400	0.0000
113.0500	0.0000
113.0600	8.2821
113.0700	8.6184
113.0800	0.0000
113.0900	0.0000
113.1000	0.0000
113.1100	0.0000
113.1200	0.0000
113.1300	0.0000
113.1400	0.0000
113.1500	0.0000
113.1600	0.0000
113.1700	0.0000
113.1800	0.0000
113.1900	0.0000
113.2000	0.0000
113.2100	0.0000
113.2200	0.0000
113.2300	0.0000
113.2400	0.0000
113.2500	0.0000
113.2600	0.0000
113.2700	0.0000
113.2800	0.0000
113.2900	25.1825
113.3000	0.1682
113.3100	0.0000
113.3200	0.0000
113.3300	0.0000
113.3400	0.0000
113.3500	0.0000
113.3600	8.2821
113.3700	8.6184
113.3800	0.0000
113.3900	25.1825
113.4000	8.4502
113.4100	8.6184
113.4200	16.7323
113.4300	0.1682
113.4400	0.0000
113.4500	0.0000
113.4600	0.0000
113.4700	0.0000
113.4800	0.0000
113.4900	0.0000
113.5000	0.0000
113.5100	0.0000
113.5200	0.0000
113.5300	0.0000
113.5400	0.0000
113.5500	0.0000
113.5600	0.0000
113.5700	0.0000
113.5800	16.7323
113.5900	0.1682
113.6000	0.0000
113.6100	0.0000
113.6200	0.0000
113.6300	0.0000
113.6400	25.1825
113.6500	8.6184
113.6600	8.2821
113.6700	8.6184
113.6800	0.0000
113.6900	0.0000
113.7000	0.0000
113.7100	25.1825
113.7200	16.9005
113.7300	8.6184
113.7400	16.7323
113.7500	0.1682
113.7600	0.0000
113.7700	0.0000
113.7800	0.0000
113.7900	0.0000
113.8000	0.0000
113.8100	0.0000
113.8200	0.0000
113.8300	0.0000
113.8400	0.0000
113.8500	0.0000
113.8600	33.4646
113.8700	17.0686
113.8800	0.1682
113.8900	0.0000
113.9000	0.0000
113.9100	16.7323
113.9200	0.1682
113.9300	0.0000
113.9400	0.0000
113.9500	0.0000
113.9600	0.0000
113.9700	0.0000
113.9800	0.0000
113.9900	16.7323
114.0000	0.1682
114.0100	0.0000
114.0200	0.0000
114.0300	0.0000
114.0400	0.0000
114.0500	16.7323
114.0600	0.1682
114.0700	0.0000
114.0800	0.0000
114.0900	0.0000
114.1000	0.0000
114.1100	0.0000
114.1200	16.7323
114.1300	16.9005
114.1400	0.1682
114.1500	0.0000
114.1600	0.0000
114.1700	0.0000
114.1800	0.0000
114.1900	8.2821
114.2000	8.6184
114.2100	8.2821
114.2200	8.6184
114.2300	0.0000
114.2400	0.0000
114.2500	0.0000
114.2600	8.2821
114.2700	16.9005
114.2800	16.9005
114.2900	8.4502
114.3000	33.4646
114.3100	25.8560
114.3200	0.0000
114.3300	0.0000
114.3400	0.0000
114.3500	0.0000
114.3600	0.0000
114.3700	0.0000
114.3800	0.0000
114.3900	0.0000
114.4000	0.0000
114.4100	0.0000
114.4200	8.2821
114.4300	8.6184
114.4400	8.2821
114.4500	8.6184
114.4600	0.0000
114.4700	0.0000
114.4800	0.0000
114.4900	0.0000
114.5000	0.0000
114.5100	0.0000
114.5200	0.0000
114.5300	0.0000
114.5400	0.0000
114.5500	0.0000
114.5600	0.0000
114.5700	0.0000
114.5800	0.0000
114.5900	0.0000
114.6000	8.2821
114.6100	8.6184
114.6200	0.0000
114.6300	0.0000
114.6400	0.0000
114.6500	25.1825
114.6600	0.1682
114.6700	0.0000
114.6800	0.0000
114.6900	0.0000
114.7000	0.0000
114.7100	8.2821
114.7200	8.6184
114.7300	0.0000
114.7400	0.0000
114.7500	0.0000
114.7600	0.0000
114.7700	0.0000
114.7800	0.0000
114.7900	0.0000
114.8000	0.0000
114.8100	8.2821
114.8200	17.0686
114.8300	0.0000
114.8400	0.0000
114.8500	0.0000
114.8600	0.0000
114.8700	8.2821
114.8800	16.9005
114.8900	0.1682
114.9000	0.0000
114.9100	0.0000
114.9200	0.0000
114.9300	0.0000
114.9400	0.0000
114.9500	0.0000
114.9600	0.0000
114.9700	0.0000
114.9800	0.0000
114.9900	0.0000
115.0000	16.7323
