#Collected Data-6
#Intensity_unit=cps
42.5000	7.5372
42.5020	36.6404
42.5040	36.6197
42.5060	41.7135
42.5080	49.2095
42.5100	35.4083
42.5120	18.9569
42.5140	31.5672
42.5160	12.6518
42.5180	34.0727
42.5200	23.9886
42.5220	30.3145
42.5240	45.4718
42.5260	42.9663
42.5280	37.8931
42.5300	35.3669
42.5320	46.7038
42.5340	27.8090
42.5360	37.8931
42.5380	30.3145
42.5400	32.8407
42.5420	12.6518
42.5440	41.6721
42.5460	42.9455
42.5480	30.3145
42.5500	21.4624
42.5520	25.2828
42.5540	31.5465
42.5560	48.0187
42.5580	17.6835
42.5600	11.3576
42.5620	50.5449
42.5640	31.5465
42.5660	32.8407
42.5680	44.1983
42.5700	39.1666
42.5720	25.2828
42.5740	27.7676
42.5760	25.2828
42.5780	41.6928
42.5800	40.3986
42.5820	41.6514
42.5840	55.5766
42.5860	48.0187
42.5880	46.7659
42.5900	58.0821
42.5920	71.9866
42.5940	46.7452
42.5960	34.0935
42.5980	47.9980
42.6000	46.7452
42.6020	55.5766
42.6040	36.6404
42.6060	30.3145
42.6080	29.0410
42.6100	27.7676
42.6120	21.5038
42.6140	59.3348
42.6160	55.5766
42.6180	37.9346
42.6200	35.3462
42.6220	20.2097
42.6240	39.1666
42.6260	45.4303
42.6280	40.4608
42.6300	27.7676
42.6320	65.6814
42.6340	53.0711
42.6360	41.6928
42.6380	26.5148
42.6400	29.0410
42.6420	29.0410
42.6440	46.7452
42.6460	47.9772
42.6480	37.9138
42.6500	46.7245
42.6520	54.3446
42.6540	45.4510
42.6560	39.1666
42.6580	17.7042
42.6600	37.8724
42.6620	51.7562
42.6640	37.9346
42.6660	44.1983
42.6680	31.5880
42.6700	45.4303
42.6720	32.8614
42.6740	44.2190
42.6760	27.8090
42.6780	35.3050
42.6800	44.2602
42.6820	51.7562
42.6840	54.3238
42.6860	34.0935
42.6880	27.8297
42.6900	54.3031
42.6920	39.1252
42.6940	50.5656
42.6960	52.9678
42.6980	70.7957
42.7000	46.6833
42.7020	56.8912
42.7040	44.1983
42.7060	42.9663
42.7080	50.5035
42.7100	36.6197
42.7120	51.7976
42.7140	18.9569
42.7160	26.5148
42.7180	37.8931
42.7200	34.0935
42.7220	48.0394
42.7240	41.6721
42.7260	46.6833
42.7280	48.0599
42.7300	35.3669
42.7320	21.4624
42.7340	51.7562
42.7360	63.1552
42.7380	39.1873
42.7400	37.8931
42.7420	32.7993
42.7440	65.6814
42.7460	65.6607
42.7480	49.2714
42.7500	34.1349
42.7520	46.7245
42.7540	36.6611
42.7560	58.0614
42.7580	63.1552
42.7600	46.7659
42.7620	26.5355
42.7640	42.9248
42.7660	47.9980
42.7680	42.9248
42.7700	55.5973
42.7720	44.1983
42.7740	58.1235
42.7760	56.8086
42.7780	60.6290
42.7800	44.1776
42.7820	80.8801
42.7840	25.3035
42.7860	16.3688
42.7880	37.9346
42.7900	45.4303
42.7920	60.6497
42.7940	46.7452
42.7960	11.3783
42.7980	37.8724
42.8000	37.8931
42.8020	25.2621
42.8040	56.8293
42.8060	44.2190
42.8080	39.1666
42.8100	42.9248
42.8120	39.1666
42.8140	21.4417
42.8160	59.3970
42.8180	53.0089
42.8200	59.3970
42.8220	44.2190
42.8240	47.9980
42.8260	45.4303
42.8280	53.0918
42.8300	29.0410
42.8320	31.5672
42.8340	45.4925
42.8360	50.5242
42.8380	35.3669
42.8400	60.6290
42.8420	49.2507
42.8440	55.5766
42.8460	39.1873
42.8480	47.9772
42.8500	41.6721
42.8520	29.0618
42.8540	44.2190
42.8560	49.2507
42.8580	42.9455
42.8600	60.6497
42.8620	60.5464
42.8640	54.3650
42.8660	35.3876
42.8680	45.4925
42.8700	55.5147
42.8720	37.8931
42.8740	53.0711
42.8760	49.2507
42.8780	48.0187
42.8800	53.0504
42.8820	44.1983
42.8840	64.4080
42.8860	45.4925
42.8880	35.3669
42.8900	36.5989
42.8920	45.4925
42.8940	50.5035
42.8960	45.4718
42.8980	61.9025
42.9000	32.8614
42.9020	13.9045
42.9040	29.0410
42.9060	58.1028
42.9080	46.7452
42.9100	25.2414
42.9120	39.1459
42.9140	68.2076
42.9160	56.8500
42.9180	55.5973
42.9200	59.3348
42.9220	32.8407
42.9240	50.5242
42.9260	50.5242
42.9280	56.8293
42.9300	80.8387
42.9320	56.8708
42.9340	42.9248
42.9360	61.9232
42.9380	45.4510
42.9400	51.7976
42.9420	40.4400
42.9440	64.4080
42.9460	61.8610
42.9480	41.7340
42.9500	50.4623
42.9520	56.8708
42.9540	26.5563
42.9560	44.1571
42.9580	42.9663
42.9600	64.3461
42.9620	68.2695
42.9640	18.9776
42.9660	41.6721
42.9680	60.6083
42.9700	68.1869
42.9720	59.3555
42.9740	59.3763
42.9760	59.3555
42.9780	61.8817
42.9800	90.9849
42.9820	79.5652
42.9840	50.5242
42.9860	69.4604
42.9880	48.0394
42.9900	66.9342
42.9920	59.3970
42.9940	35.3255
42.9960	26.5563
42.9980	42.9248
43.0000	59.3144
43.0020	43.0074
43.0040	71.9454
43.0060	61.8817
43.0080	51.8388
43.0100	58.1028
43.0120	54.2824
43.0140	56.8500
43.0160	50.5242
43.0180	73.2393
43.0200	82.0914
43.0220	83.3856
43.0240	63.1759
43.0260	53.0504
43.0280	49.2714
43.0300	63.1345
43.0320	68.1662
43.0340	83.4063
43.0360	64.3872
43.0380	55.6385
43.0400	50.5242
43.0420	35.3669
43.0440	61.8817
43.0460	53.0504
43.0480	32.8407
43.0500	78.2710
43.0520	69.5223
43.0540	66.8930
43.0560	63.1759
43.0580	59.3763
43.0600	59.3970
43.0620	78.2710
43.0640	63.1345
43.0660	59.3763
43.0680	64.4287
43.0700	40.4608
43.0720	64.4080
43.0740	51.7562
43.0760	61.8817
43.0780	72.0485
43.0800	70.7131
43.0820	59.3555
43.0840	82.0914
43.0860	55.5352
43.0880	74.5335
43.0900	85.9118
43.0920	53.0918
43.0940	63.0933
43.0960	60.6290
43.0980	72.0280
43.1000	59.3555
43.1020	48.0187
43.1040	55.5559
43.1060	89.6700
43.1080	80.8594
43.1100	45.4925
43.1120	64.3461
43.1140	88.4792
43.1160	47.9772
43.1180	84.6176
43.1200	65.6607
43.1220	85.9530
43.1240	70.6924
43.1260	77.0597
43.1280	63.1966
43.1300	64.3872
43.1320	79.5859
43.1340	50.5242
43.1360	71.9866
43.1380	55.5973
43.1400	77.0183
43.1420	71.9866
43.1440	70.7131
43.1460	64.4698
43.1480	77.0390
43.1500	73.2186
43.1520	90.9435
43.1540	72.0280
43.1560	83.3856
43.1580	70.7131
43.1600	42.9455
43.1620	82.1121
43.1640	66.9342
43.1660	90.9849
43.1680	56.8293
43.1700	46.7452
43.1720	55.5766
43.1740	58.1028
43.1760	79.5240
43.1780	74.5747
43.1800	65.6195
43.1820	68.2283
43.1840	73.2808
43.1860	78.3125
43.1880	72.0073
43.1900	44.1983
43.1920	58.1028
43.1940	74.4921
43.1960	92.1962
43.1980	83.3856
43.2000	75.7862
43.2020	68.2076
43.2040	70.7545
43.2060	51.7562
43.2080	72.0073
43.2100	75.7244
43.2120	72.0485
43.2140	84.6795
43.2160	79.5240
43.2180	61.9025
43.2200	90.9435
43.2220	59.3555
43.2240	85.9118
43.2260	77.0804
43.2280	68.1457
43.2300	84.6383
43.2320	84.6795
43.2340	59.3348
43.2360	59.3763
43.2380	36.6404
43.2400	87.1231
43.2420	74.5335
43.2440	55.5766
43.2460	77.0597
43.2480	69.4397
43.2500	89.7115
43.2520	74.5128
43.2540	74.5128
43.2560	70.7338
43.2580	78.2917
43.2600	82.1328
43.2620	51.7976
43.2640	76.9978
43.2660	64.4698
43.2680	39.1252
43.2700	83.3856
43.2720	78.2917
43.2740	98.5221
43.2760	80.8387
43.2780	49.3126
43.2800	56.7882
43.2820	87.1853
43.2840	79.5859
43.2860	84.5969
43.2880	37.8724
43.2900	88.3759
43.2920	77.1009
43.2940	92.1755
43.2960	73.3015
43.2980	60.6290
43.3000	72.0073
43.3020	90.9435
43.3040	84.5764
43.3060	78.3539
43.3080	107.3949
43.3100	109.8178
43.3120	107.3949
43.3140	84.6383
43.3160	90.9228
43.3180	59.3763
43.3200	92.1551
43.3220	120.0671
43.3240	64.4080
43.3260	78.2917
43.3280	72.0485
43.3300	64.3461
43.3320	84.6383
43.3340	93.4490
43.3360	63.1966
43.3380	73.2600
43.3400	68.1869
43.3420	73.2600
43.3440	72.0485
43.3460	63.1345
43.3480	58.1028
43.3500	83.3649
43.3520	87.1645
43.3540	55.5766
43.3560	87.1027
43.3580	102.3218
43.3600	108.6062
43.3620	104.9099
43.3640	79.5445
43.3660	79.6066
43.3680	78.2917
43.3700	89.6700
43.3720	88.4173
43.3740	90.9642
43.3760	92.1755
43.3780	96.0578
43.3800	66.8930
43.3820	61.9025
43.3840	99.7337
43.3860	88.4792
43.3880	68.2283
43.3900	104.8066
43.3920	56.8086
43.3940	88.4380
43.3960	74.5747
43.3980	90.8816
43.4000	74.5954
43.4020	53.0089
43.4040	97.2280
43.4060	119.9638
43.4080	125.0577
43.4100	89.7526
43.4120	80.8180
43.4140	92.1755
43.4160	85.8704
43.4180	102.3218
43.4200	118.7318
43.4220	109.9623
43.4240	66.9134
43.4260	77.0183
43.4280	97.2487
43.4300	93.4904
43.4320	114.9528
43.4340	82.1121
43.4360	75.7655
43.4380	107.3535
43.4400	108.6270
43.4420	111.1117
43.4440	97.2694
43.4460	133.8890
43.4480	114.9735
43.4500	106.0800
43.4520	120.0464
43.4540	108.6062
43.4560	106.0389
43.4580	109.9004
43.4600	128.7952
43.4620	102.4044
43.4640	72.0073
43.4660	92.1962
43.4680	123.7635
43.4700	84.6590
43.4720	108.5855
43.4740	96.0166
43.4760	116.1642
43.4780	117.5617
43.4800	79.4826
43.4820	130.1101
43.4840	84.6383
43.4860	137.6473
43.4880	116.2263
43.4900	107.4154
43.4920	83.3234
43.4940	83.4268
43.4960	74.5128
43.4980	87.1645
43.5000	89.6081
43.5020	122.5934
43.5040	124.9751
43.5060	116.2675
43.5080	95.9752
43.5100	136.4360
43.5120	92.1344
43.5140	130.1308
43.5160	104.8480
43.5180	106.0800
43.5200	96.0373
43.5220	97.2901
43.5240	107.3123
43.5260	122.5726
43.5280	100.9657
43.5300	122.5315
43.5320	108.6684
43.5340	94.7432
43.5360	93.3664
43.5380	117.5409
43.5400	113.7001
43.5420	118.6492
43.5440	132.6982
43.5460	41.7135
43.5480	73.2600
43.5500	104.8273
43.5520	117.4376
43.5540	89.7115
43.5560	111.1324
43.5580	99.7749
43.5600	103.5745
43.5620	111.1532
43.5640	88.4173
43.5660	113.6794
43.5680	88.4173
43.5700	107.3328
43.5720	114.9735
43.5740	101.0898
43.5760	118.7111
43.5780	85.8704
43.5800	112.4473
43.5820	114.8702
43.5840	94.7843
43.5860	117.4376
43.5880	135.1418
43.5900	125.0577
43.5920	125.0577
43.5940	118.7111
43.5960	123.8049
43.5980	104.8480
43.6000	103.6364
43.6020	97.2487
43.6040	104.8273
43.6060	85.8911
43.6080	108.5651
43.6100	142.7823
43.6120	95.9959
43.6140	95.9959
43.6160	79.5445
43.6180	97.2694
43.6200	93.4697
43.6220	109.8797
43.6240	99.7956
43.6260	112.4059
43.6280	123.7428
43.6300	125.0577
43.6320	135.1211
43.6340	123.8461
43.6360	108.6270
43.6380	94.7225
43.6400	120.0053
43.6420	117.4583
43.6440	84.6795
43.6460	107.3123
43.6480	108.5855
43.6500	127.6458
43.6520	113.5968
43.6540	125.0988
43.6560	130.0482
43.6580	88.4999
43.6600	117.4172
43.6620	107.3949
43.6640	138.9829
43.6660	112.3233
43.6680	117.4998
43.6700	145.2880
43.6720	112.3852
43.6740	125.0784
43.6760	119.9638
43.6780	96.0373
43.6800	104.7861
43.6820	118.7937
43.6840	135.1006
43.6860	131.3836
43.6880	127.5013
43.6900	133.9305
43.6920	136.4153
43.6940	89.7319
43.6960	127.5839
43.6980	82.0502
43.7000	101.0276
43.7020	118.7318
43.7040	132.6363
43.7060	147.8143
43.7080	113.6379
43.7100	118.7525
43.7120	79.6478
43.7140	90.9021
43.7160	138.9000
43.7180	161.6359
43.7200	104.9306
43.7220	147.7109
43.7240	108.6684
43.7260	130.1101
43.7280	102.2599
43.7300	157.8777
43.7320	149.0670
43.7340	107.3949
43.7360	122.5315
43.7380	125.0162
43.7400	161.6566
43.7420	131.3628
43.7440	150.3405
43.7460	99.8368
43.7480	116.1230
43.7500	154.0368
43.7520	136.4771
43.7540	132.6775
43.7560	155.3515
43.7580	128.7952
43.7600	146.4994
43.7620	128.8781
43.7640	155.3722
43.7660	101.0691
43.7680	130.0275
43.7700	132.5949
43.7720	133.9509
43.7740	155.4133
43.7760	137.6061
43.7780	178.1492
43.7800	117.4583
43.7820	147.7935
43.7840	145.2259
43.7860	126.3311
43.7880	108.5444
43.7900	179.4641
43.7920	150.2164
43.7940	144.0765
43.7960	137.6680
43.7980	164.2450
43.8000	126.2278
43.8020	155.3515
43.8040	152.8460
43.8060	146.5408
43.8080	162.9920
43.8100	132.5949
43.8120	157.7743
43.8140	175.6230
43.8160	123.8049
43.8180	156.6663
43.8200	142.6792
43.8220	159.1304
43.8240	154.1606
43.8260	160.4039
43.8280	175.5818
43.8300	151.5932
43.8320	136.3119
43.8340	195.8122
43.8360	173.0349
43.8380	161.7188
43.8400	141.5503
43.8420	126.2485
43.8440	183.0778
43.8460	155.3929
43.8480	142.7618
43.8500	181.7837
43.8520	139.0241
43.8540	161.6981
43.8560	173.0349
43.8580	161.7188
43.8600	136.3945
43.8620	138.9622
43.8640	166.6264
43.8660	178.1492
43.8680	125.0784
43.8700	169.2352
43.8720	178.0873
43.8740	175.5818
43.8760	162.9715
43.8780	171.7407
43.8800	166.7712
43.8820	178.0873
43.8840	178.0666
43.8860	195.7708
43.8880	161.7392
43.8900	189.4449
43.8920	175.4992
43.8940	159.2130
43.8960	161.5533
43.8980	149.1496
43.9000	161.6566
43.9020	209.6134
43.9040	209.7372
43.9060	154.1401
43.9080	184.4339
43.9100	200.7820
43.9120	180.6135
43.9140	178.0873
43.9160	176.8553
43.9180	239.9691
43.9200	190.6977
43.9220	161.7599
43.9240	200.8439
43.9260	161.6359
43.9280	178.0873
43.9300	178.1080
43.9320	191.9711
43.9340	190.7598
43.9360	217.1920
43.9380	190.7803
43.9400	159.1304
43.9420	221.0329
43.9440	200.8646
43.9460	186.9809
43.9480	185.6660
43.9500	207.0458
43.9520	183.2431
43.9540	190.6565
43.9560	187.0013
43.9580	217.2539
43.9600	176.7931
43.9620	199.5912
43.9640	194.4766
43.9660	208.4433
43.9680	228.6115
43.9700	203.3494
43.9720	190.6977
43.9740	207.1905
43.9760	212.2222
43.9780	203.3701
43.9800	160.3832
43.9820	195.7708
43.9840	217.2332
43.9860	243.7688
43.9880	171.9062
43.9900	183.0157
43.9920	229.9057
43.9940	233.7258
43.9960	251.4093
43.9980	198.2144
44.0000	276.7128
44.0020	165.4356
44.0040	198.2763
44.0060	188.2336
44.0080	260.0547
44.0100	217.4398
44.0120	221.0122
44.0140	202.0348
44.0160	256.4617
44.0180	203.3287
44.0200	214.7691
44.0220	218.4241
44.0240	236.2108
44.0260	198.3796
44.0280	178.0254
44.0300	181.9696
44.0320	198.2763
44.0340	204.6436
44.0360	188.2129
44.0380	219.6768
44.0400	213.4750
44.0420	208.4637
44.0440	236.1901
44.0460	222.3063
44.0480	260.1787
44.0500	240.0105
44.0520	204.5814
44.0540	241.3044
44.0560	185.7074
44.0580	214.7070
44.0600	224.8325
44.0620	218.5274
44.0640	213.4543
44.0660	193.1827
44.0680	222.3889
44.0700	180.6962
44.0720	184.3513
44.0740	261.4522
44.0760	255.0644
44.0780	262.7671
44.0800	221.1155
44.0820	222.2649
44.0840	237.4017
44.0860	229.8642
44.0880	247.6099
44.0900	280.3884
44.0920	301.8508
44.0940	276.6095
44.0960	265.3552
44.0980	219.7801
44.1000	239.8865
44.1020	289.3231
44.1040	248.8005
44.1060	233.6639
44.1080	255.1263
44.1100	248.8626
44.1120	255.2089
44.1140	274.0833
44.1160	185.6660
44.1180	234.9167
44.1200	284.1881
44.1220	236.2108
44.1240	232.4938
44.1260	191.7645
44.1280	236.4175
44.1300	217.2125
44.1320	270.1595
44.1340	255.2504
44.1360	228.7148
44.1380	258.8434
44.1400	280.4091
44.1420	239.9898
44.1440	299.4072
44.1460	289.2405
44.1480	257.6733
44.1500	242.5160
44.1520	285.4201
44.1540	216.0219
44.1560	277.8622
44.1580	298.1752
44.1600	289.1165
44.1620	295.6078
44.1640	303.1450
44.1660	272.7686
44.1680	311.8731
44.1700	322.1638
44.1720	270.4076
44.1740	252.6001
44.1760	266.5046
44.1780	321.9779
44.1800	267.8814
44.1820	305.7126
44.1840	305.6505
44.1860	313.1879
44.1880	306.9858
44.1900	315.7760
44.1920	327.1336
44.1940	256.4412
44.1960	291.7255
44.1980	303.2069
44.2000	320.8077
44.2020	287.9878
44.2040	305.7331
44.2060	250.1153
44.2080	243.7276
44.2100	301.8715
44.2120	276.5683
44.2140	246.2950
44.2160	258.9879
44.2180	274.1866
44.2200	284.1055
44.2220	282.8734
44.2240	303.1243
44.2260	309.5328
44.2280	233.6227
44.2300	319.5550
44.2320	322.0812
44.2340	289.3231
44.2360	310.6410
44.2380	332.1449
44.2400	315.8379
44.2420	309.5328
44.2440	298.0511
44.2460	291.8493
44.2480	315.7142
44.2500	343.5643
44.2520	361.3097
44.2540	308.0941
44.2560	313.3324
44.2580	290.4932
44.2600	323.3339
44.2620	289.2819
44.2640	337.1558
44.2660	385.3604
44.2680	296.8605
44.2700	318.2815
44.2720	320.7870
44.2740	333.3562
44.2760	352.4576
44.2780	337.2177
44.2800	379.0139
44.2820	320.8285
44.2840	322.0193
44.2860	338.5534
44.2880	336.0064
44.2900	323.3961
44.2920	335.9238
44.2940	322.1019
44.2960	356.0713
44.2980	349.9521
44.3000	349.8488
44.3020	348.6168
44.3040	368.9090
44.3060	360.0362
44.3080	339.7028
44.3100	327.1750
44.3120	359.9332
44.3140	338.5326
44.3160	346.0286
44.3180	309.4916
44.3200	357.4688
44.3220	313.2913
44.3240	339.8061
44.3260	335.9857
44.3280	333.4802
44.3300	388.8913
44.3320	322.1638
44.3340	380.1840
44.3360	370.0173
44.3380	357.5929
44.3400	290.4725
44.3420	334.6915
44.3440	414.2775
44.3460	396.5940
44.3480	385.3190
44.3500	376.3636
44.3520	420.6448
44.3540	375.2142
44.3560	370.0173
44.3580	370.0380
44.3600	358.5975
44.3620	417.0103
44.3640	372.5642
44.3660	361.2271
44.3680	431.8990
44.3700	404.2759
44.3720	334.7948
44.3740	325.9223
44.3760	412.9214
44.3780	390.2888
44.3800	419.4332
44.3820	391.5416
44.3840	469.8333
44.3860	387.8040
44.3880	388.9742
44.3900	419.4332
44.3920	390.3096
44.3940	402.8787
44.3960	383.9630
44.3980	394.1299
44.4000	382.7102
44.4020	380.1840
44.4040	428.2027
44.4060	417.9531
44.4080	432.1468
44.4100	423.1295
44.4120	396.5528
44.4140	454.6761
44.4160	411.7720
44.4180	481.2738
44.4200	438.3487
44.4220	411.8134
44.4240	457.0785
44.4260	479.8555
44.4280	472.4836
44.4300	492.7965
44.4320	433.0691
44.4340	396.7799
44.4360	425.6350
44.4380	436.9721
44.4400	444.7160
44.4420	448.3709
44.4440	444.5508
44.4460	416.8037
44.4480	384.0456
44.4500	497.6630
44.4520	471.1275
44.4540	404.1933
44.4560	444.6127
44.4580	503.9475
44.4600	509.0206
44.4620	466.0958
44.4640	505.2210
44.4660	472.5043
44.4680	431.8990
44.4700	424.4030
44.4720	421.9801
44.4740	450.7938
44.4760	478.7475
44.4780	448.3916
44.4800	493.8015
44.4820	468.5601
44.4840	458.7031
44.4860	460.9815
44.4880	471.0242
44.4900	471.2101
44.4920	468.6427
44.4940	524.1779
44.4960	511.4642
44.4980	499.0810
44.5000	517.7280
44.5020	543.2588
44.5040	463.5903
44.5060	511.4642
44.5080	493.9667
44.5100	546.8311
44.5120	544.4290
44.5140	477.4534
44.5160	556.9567
44.5180	572.1966
44.5200	469.9988
44.5220	506.4737
44.5240	496.3070
44.5260	514.1556
44.5280	493.8634
44.5300	501.4627
44.5320	562.0298
44.5340	547.0585
44.5360	416.6592
44.5380	492.6313
44.5400	471.1275
44.5420	540.6086
44.5440	507.8505
44.5460	516.5581
44.5480	580.9246
44.5500	558.3335
44.5520	524.2605
44.5540	558.3127
44.5560	533.0093
44.5580	599.8815
44.5600	569.7530
44.5620	605.0373
44.5640	529.2510
44.5660	556.9979
44.5680	608.8369
44.5700	498.8539
44.5720	574.7228
44.5740	567.1648
44.5760	613.8067
44.5780	634.0164
44.5800	623.8287
44.5820	619.0451
44.5840	573.5733
44.5860	576.0169
44.5880	563.1997
44.5900	579.8992
44.5920	617.5235
44.5940	641.6569
44.5960	564.5146
44.5980	701.2605
44.6000	631.4488
44.6020	650.4264
44.6040	577.3108
44.6060	616.3534
44.6080	650.4883
44.6100	589.8181
44.6120	605.2025
44.6140	669.5071
44.6160	556.8945
44.6180	718.6959
44.6200	597.5619
44.6220	700.9713
44.6240	700.9506
44.6260	618.9417
44.6280	611.4457
44.6300	664.2687
44.6320	698.4863
44.6340	680.8235
44.6360	616.5600
44.6380	589.6319
44.6400	597.5412
44.6420	665.6456
44.6440	733.7498
44.6460	716.2938
44.6480	667.0016
44.6500	738.8230
44.6520	685.9378
44.6540	723.7484
44.6560	637.8572
44.6580	642.9304
44.6600	633.9131
44.6620	724.9804
44.6640	812.3515
44.6660	689.6549
44.6680	717.3399
44.6700	744.0406
44.6720	708.6737
44.6740	689.5930
44.6760	725.0218
44.6780	681.9729
44.6800	690.8457
44.6820	797.0702
44.6840	722.5575
44.6860	726.2952
44.6880	723.6657
44.6900	721.3255
44.6920	752.6653
44.6940	699.8424
44.6960	786.9242
44.6980	770.4728
44.7000	804.4836
44.7020	780.7636
44.7040	795.6523
44.7060	783.1865
44.7080	743.9580
44.7100	751.6192
44.7120	767.9466
44.7140	786.7795
44.7160	904.3618
44.7180	804.7729
44.7200	900.5418
44.7220	732.5385
44.7240	853.7758
44.7260	773.1024
44.7280	761.7655
44.7300	852.5438
44.7320	823.5025
44.7340	861.3130
44.7360	849.0126
44.7380	903.0265
44.7400	837.2832
44.7420	859.0760
44.7440	916.8277
44.7460	800.9940
44.7480	873.9854
44.7500	920.7514
44.7520	845.2956
44.7540	843.6088
44.7560	963.5108
44.7580	893.2936
44.7600	933.3203
44.7620	909.3110
44.7640	908.2441
44.7660	903.1505
44.7680	901.8150
44.7700	926.9944
44.7720	922.2520
44.7740	981.3804
44.7760	955.0101
44.7780	903.1710
44.7800	953.4681
44.7820	977.6634
44.7840	938.4967
44.7860	1044.6386
44.7880	901.7737
44.7900	977.5600
44.7920	994.1352
44.7940	917.0136
44.7960	1029.1922
44.7980	1005.4928
44.8000	922.4793
44.8020	1007.6886
44.8040	1016.7266
44.8060	963.6762
44.8080	1033.4258
44.8100	1014.2004
44.8120	1021.7998
44.8140	1074.9531
44.8160	1070.9676
44.8180	1082.8006
44.8200	1097.4205
44.8220	1053.4496
44.8240	1117.7335
44.8260	1164.4787
44.8280	1102.7829
44.8300	1221.3702
44.8320	1109.2740
44.8340	1231.1651
44.8360	1115.5999
44.8380	1152.1370
44.8400	1087.3571
44.8420	1193.3958
44.8440	1174.7076
44.8460	1114.3471
44.8480	1147.9654
44.8500	1223.8342
44.8520	1258.1551
44.8540	1177.1304
44.8560	1279.4108
44.8580	1232.8516
44.8600	1144.5997
44.8620	1212.2288
44.8640	1337.6376
44.8660	1416.0742
44.8680	1314.8399
44.8700	1408.3923
44.8720	1316.3405
44.8740	1260.5572
44.8760	1394.4255
44.8780	1227.8613
44.8800	1250.2253
44.8820	1305.9671
44.8840	1477.6871
44.8860	1465.3868
44.8880	1390.5641
44.8900	1368.2414
44.8920	1477.7904
44.8940	1258.1137
44.8960	1312.3341
44.8980	1259.0772
44.9000	1453.9465
44.9020	1504.0781
44.9040	1494.4278
44.9060	1501.9032
44.9080	1357.7233
44.9100	1360.4976
44.9120	1378.0155
44.9140	1400.7514
44.9160	1444.9497
44.9180	1526.9585
44.9200	1772.2900
44.9220	1568.5688
44.9240	1548.7517
44.9260	1461.4219
44.9280	1412.3982
44.9300	1441.0056
44.9320	1516.9366
44.9340	1673.4374
44.9360	1677.4023
44.9380	1660.9305
44.9400	1707.7168
44.9420	1663.7251
44.9440	1652.0163
44.9460	1406.0106
44.9480	1625.4806
44.9500	1711.4338
44.9520	1732.9583
44.9540	1761.9373
44.9560	1788.4522
44.9580	1822.6696
44.9600	1793.6906
44.9620	1734.4590
44.9640	1626.8163
44.9660	1768.2632
44.9680	1769.5160
44.9700	1962.8020
44.9720	1951.5683
44.9740	1878.2462
44.9760	1831.6043
44.9780	1806.1563
44.9800	1868.0999
44.9820	1821.2722
44.9840	1941.4014
44.9860	2085.2302
44.9880	2034.9953
44.9900	2059.8026
44.9920	1922.8164
44.9940	2013.0573
44.9960	1929.2456
44.9980	1836.4708
45.0000	1921.1918
45.0020	2088.8024
45.0040	2229.3892
45.0060	2287.2647
45.0080	2032.5927
45.0100	2206.7153
45.0120	1917.6399
45.0140	2134.4808
45.0160	2205.1939
45.0180	2249.4129
45.0200	2316.7605
45.0220	2442.6782
45.0240	2257.1360
45.0260	2196.7138
45.0280	2081.8434
45.0300	2244.4431
45.0320	2193.9190
45.0340	2333.9687
45.0360	2524.5837
45.0380	2749.8916
45.0400	2583.4096
45.0420	2450.2361
45.0440	2429.1871
45.0460	2316.4297
45.0480	2359.4168
45.0500	2553.8933
45.0520	2822.6967
45.0540	2833.4837
45.0560	2902.5307
45.0580	2618.7147
45.0600	2628.2200
45.0620	2559.3383
45.0640	2498.2134
45.0660	2735.4291
45.0680	2917.8326
45.0700	3213.1510
45.0720	3246.2190
45.0740	3132.8496
45.0760	3013.5393
45.0780	2807.9530
45.0800	2797.8689
45.0820	2897.8915
45.0840	3010.4552
45.0860	3362.4040
45.0880	3502.4534
45.0900	3568.5484
45.0920	3372.5294
45.0940	3142.7891
45.0960	2828.0384
45.0980	2994.8924
45.1000	3168.8699
45.1020	3657.4745
45.1040	3668.1371
45.1060	3952.3667
45.1080	3581.2207
45.1100	3558.1956
45.1120	3179.4090
45.1140	3098.4257
45.1160	3469.4887
45.1180	3747.9841
45.1200	4333.6586
45.1220	4643.1709
45.1240	4633.1281
45.1260	4238.0142
45.1280	3819.9163
45.1300	3377.5405
45.1320	3521.5551
45.1340	3983.3347
45.1360	4432.9171
45.1380	5110.1269
45.1400	5360.5931
45.1420	4998.5889
45.1440	4332.2897
45.1460	3723.5898
45.1480	3444.4539
45.1500	3887.3594
45.1520	4538.7079
45.1540	5416.0871
45.1560	6103.9521
45.1580	6045.4232
45.1600	5222.5404
45.1620	4488.2741
45.1640	4170.8939
45.1660	4107.4495
45.1680	4732.1797
45.1700	5888.7495
45.1720	6859.4747
45.1740	7213.4331
45.1760	6756.9745
45.1780	5732.8758
45.1800	4733.4196
45.1820	4238.2622
45.1840	4676.2312
45.1860	6188.0947
45.1880	7266.4964
45.1900	8371.8748
45.1920	8409.8302
45.1940	7461.0089
45.1960	6033.9288
45.1980	4969.4650
45.2000	4876.3595
45.2020	5736.1304
45.2040	7608.2296
45.2060	9386.3361
45.2080	10161.6009
45.2100	9844.1454
45.2120	8195.6471
45.2140	6483.3873
45.2160	5369.7142
45.2180	5869.8541
45.2200	7488.2242
45.2220	9905.4750
45.2240	12129.4684
45.2260	12463.2523
45.2280	11214.3421
45.2300	8631.2632
45.2320	6611.2809
45.2340	5971.3570
45.2360	7273.7235
45.2380	10143.9020
45.2400	13139.6335
45.2420	14937.6561
45.2440	14871.5479
45.2460	12374.5119
45.2480	9445.6114
45.2500	6838.0198
45.2520	7216.4471
45.2540	9946.1553
45.2560	14217.6436
45.2580	17883.2200
45.2600	19044.4518
45.2620	17374.2642
45.2640	13940.6044
45.2660	10147.8356
45.2680	8025.4203
45.2700	9233.4827
45.2720	13967.9338
45.2740	19026.4699
45.2760	23765.3197
45.2780	23861.2219
45.2800	20269.3471
45.2820	15406.0606
45.2840	10703.0020
45.2860	10589.7963
45.2880	14505.4574
45.2900	22006.2720
45.2920	28963.3609
45.2940	32944.6875
45.2960	31019.2529
45.2980	25309.2721
45.3000	17519.0858
45.3020	12677.1203
45.3040	14152.7602
45.3060	21718.3582
45.3080	33308.5009
45.3100	41358.6733
45.3120	44185.1896
45.3140	39290.5277
45.3160	28506.4207
45.3180	20499.4122
45.3200	16729.9072
45.3220	22149.4320
45.3240	36774.9645
45.3260	53051.5098
45.3280	63015.8524
45.3300	62126.6271
45.3320	52040.7156
45.3340	35568.7790
45.3360	25006.4084
45.3380	25916.4453
45.3400	40014.5800
45.3420	64098.9938
45.3440	86337.2255
45.3460	95209.8021
45.3480	89343.2852
45.3500	69531.1312
45.3520	46392.1237
45.3540	37528.3519
45.3560	49741.4072
45.3580	82312.2849
45.3600	122064.3144
45.3620	155183.5175
45.3640	163877.0095
45.3660	142383.3678
45.3680	105923.6095
45.3700	74945.7085
45.3720	72957.8539
45.3740	118356.1070
45.3760	180853.1098
45.3780	215446.6120
45.3800	272311.1866
45.3820	279375.5900
45.3840	236305.9089
45.3860	176004.9410
45.3880	135408.9803
45.3900	177758.6822
45.3920	309959.9404
45.3940	536685.5792
45.3960	763394.2647
45.3980	864351.2598
45.4000	857629.3352
45.4020	722546.0286
45.4040	578924.8482
45.4060	693986.2960
45.4080	1308883.8773
45.4100	2686881.8146
45.4120	4848284.1919
45.4140	7509091.1156
45.4160	10373330.7545
45.4180	12905116.3243
45.4200	15426935.3706
45.4220	16464884.9041
45.4240	16646232.5586
45.4260	16138160.2755
45.4280	14731921.1446
45.4300	12545636.8784
45.4320	9864570.0796
45.4340	6966466.6180
45.4360	4351303.2264
45.4380	2807350.0587
45.4400	1459256.8230
45.4420	865180.3298
45.4440	707813.5763
45.4460	815246.5854
45.4480	938577.1025
45.4500	899410.4527
45.4520	746999.1726
45.4540	532851.7422
45.4560	359741.3426
45.4580	232105.8310
45.4600	214284.8324
45.4620	257938.4229
45.4640	314877.6983
45.4660	359084.3705
45.4680	349096.0191
45.4700	274495.2318
45.4720	196727.8621
45.4740	140383.0352
45.4760	118188.4990
45.4780	126523.5260
45.4800	159516.4483
45.4820	190128.9718
45.4840	180482.1913
45.4860	167771.3373
45.4880	132151.4643
45.4900	102400.3285
45.4920	76523.9078
45.4940	71796.4197
45.4960	87727.2322
45.4980	110136.6441
45.5000	126589.0792
45.5020	125817.3521
45.5040	109027.1551
45.5060	83899.2865
45.5080	60542.0826
45.5100	49469.4599
45.5120	54265.9795
45.5140	68431.1303
45.5160	82040.5892
45.5180	88044.4687
45.5200	84337.1988
45.5220	69253.6134
45.5240	51724.6584
45.5260	40835.7827
45.5280	38112.8484
45.5300	44125.7448
45.5320	55646.5475
45.5340	64368.4791
45.5360	65557.7706
45.5380	57867.4744
45.5400	46489.5850
45.5420	35083.8407
45.5440	30083.5962
45.5460	31401.0089
45.5480	38786.1939
45.5500	46288.8748
45.5520	50633.9877
45.5540	48814.1753
45.5560	41096.5743
45.5580	32478.9203
45.5600	26857.6997
45.5620	25552.2174
45.5640	29685.7134
45.5660	36351.2671
45.5680	41428.0059
45.5700	42564.7750
45.5720	38269.9741
45.5740	32052.9211
45.5760	25265.3472
45.5780	22580.0149
45.5800	23556.4511
45.5820	27973.2674
45.5840	33235.2483
45.5860	36368.8296
45.5880	34539.8153
45.5900	30723.4448
45.5920	24214.1633
45.5940	20898.9244
45.5960	20284.0060
45.5980	23582.8900
45.6000	28823.8693
45.6020	32243.1589
45.6040	33126.5005
45.6060	30239.5969
45.6080	26362.0596
45.6100	21810.4292
45.6120	20101.0397
45.6140	22171.7929
45.6160	26399.8886
45.6180	29853.3584
45.6200	31198.7346
45.6220	30392.4473
45.6240	27598.2562
45.6260	23156.7971
45.6280	21241.1738
45.6300	21985.4727
45.6320	24983.3172
45.6340	29101.4093
45.6360	32824.5396
45.6380	32427.2563
45.6400	30256.7549
45.6420	26552.2752
45.6440	24427.6229
45.6460	24082.9287
45.6480	27087.3675
45.6500	31646.7320
45.6520	35099.7011
45.6540	36621.1470
45.6560	35696.2193
45.6580	32922.7953
45.6600	30287.4000
45.6620	29469.4044
45.6640	31437.0024
45.6660	35710.1702
45.6680	41145.6676
45.6700	44510.6461
45.6720	45785.9274
45.6740	44619.3915
45.6760	43163.1212
45.6780	42425.1970
45.6800	44687.5843
45.6820	49912.2075
45.6840	57340.6859
45.6860	64486.2438
45.6880	68459.0814
45.6900	71264.7318
45.6920	71324.0632
45.6940	74137.2626
45.6960	79556.5863
45.6980	89049.4654
45.7000	103561.4468
45.7020	120354.0812
45.7040	136503.2824
45.7060	151950.7701
45.7080	166625.4255
45.7100	186616.4765
45.7120	198455.7294
45.7140	235359.9228
45.7160	297309.1627
45.7180	398158.8926
45.7200	522253.8246
45.7220	732104.7272
45.7240	1216430.0204
45.7260	2321134.2144
45.7280	5183541.7206
45.7300	10490093.9983
45.7320	16809132.5767
45.7340	18913793.7886
45.7360	15851275.2154
45.7380	9492383.8059
45.7400	4771704.3967
45.7420	3246972.8324
45.7440	1502470.7743
45.7460	691610.5550
45.7480	461778.9233
45.7500	332610.8519
45.7520	243440.2173
45.7540	192854.4940
45.7560	157050.3854
45.7580	125658.0826
45.7600	118487.2429
45.7620	110328.3892
45.7640	95424.5693
45.7660	81899.1857
45.7680	69563.7301
45.7700	58905.6621
45.7720	51402.1869
45.7740	46634.0673
45.7760	44544.5427
45.7780	41761.4605
45.7800	39094.9415
45.7820	35564.8984
45.7840	30877.9900
45.7860	26535.3367
45.7880	23625.2730
45.7900	21867.7894
45.7920	21368.1083
45.7940	21354.8235
45.7960	20894.4147
45.7980	20142.6987
45.8000	17835.3478
45.8020	15536.3749
45.8040	13768.1524
45.8060	12918.2104
45.8080	12549.7478
45.8100	12882.1613
45.8120	12991.2015
45.8140	12731.1266
45.8160	11523.3178
45.8180	10518.7257
45.8200	9068.9097
45.8220	8424.2510
45.8240	8198.8813
45.8260	8226.5253
45.8280	8849.2177
45.8300	9010.7656
45.8320	8395.0035
45.8340	7660.3314
45.8360	6597.1826
45.8380	5942.7577
45.8400	5740.4674
45.8420	5788.5480
45.8440	6250.0257
45.8460	6283.6848
45.8480	6172.8209
45.8500	5827.2262
45.8520	5087.1715
45.8540	4699.1607
45.8560	4524.3358
45.8580	4531.4806
45.8600	4547.3196
45.8620	4914.4179
45.8640	5085.4433
45.8660	4892.4881
45.8680	4286.1981
45.8700	3947.5209
45.8720	3495.1230
45.8740	3407.4625
45.8760	3680.9335
45.8780	3831.8861
45.8800	4184.6330
45.8820	3986.5427
45.8840	3674.6491
45.8860	3241.5798
45.8880	3003.6617
45.8900	2855.9510
45.8920	2963.1391
45.8940	3094.4193
45.8960	3260.2683
45.8980	3289.9420
45.9000	3160.5552
45.9020	2933.4651
45.9040	2588.0073
45.9060	2474.6380
45.9080	2364.2624
45.9100	2590.8231
45.9120	2676.3213
45.9140	2841.8811
45.9160	2935.6607
45.9180	2527.6262
45.9200	2333.0257
45.9220	2205.4005
45.9240	2098.1505
45.9260	2190.0778
45.9280	2167.4249
45.9300	2364.5517
45.9320	2456.6032
45.9340	2289.1991
45.9360	2032.1798
45.9380	1966.9113
45.9400	1682.5166
45.9420	1826.3453
45.9440	2044.8520
45.9460	2078.5528
45.9480	2257.4461
45.9500	2143.6634
45.9520	1865.8426
45.9540	1721.5180
45.9560	1566.4145
45.9580	1571.3431
45.9600	1732.8549
45.9620	1823.6125
45.9640	1850.6024
45.9660	1969.2930
45.9680	1754.7306
45.9700	1645.6903
45.9720	1494.5930
45.9740	1306.0290
45.9760	1374.0507
45.9780	1530.9649
45.9800	1499.1910
45.9820	1724.0027
45.9840	1577.8340
45.9860	1504.4500
45.9880	1345.1544
45.9900	1325.1099
45.9920	1226.5671
45.9940	1284.4426
45.9960	1479.0435
45.9980	1531.9284
46.0000	1469.3104
46.0020	1390.6465
46.0040	1329.9142
46.0060	1197.7120
46.0080	1081.1758
46.0100	1207.5690
46.0120	1331.1878
46.0140	1361.5023
46.0160	1422.2968
46.0180	1356.6154
46.0200	1148.4199
46.0220	1136.6078
46.0240	1062.3636
46.0260	1084.9550
46.0280	1141.8669
46.0300	1206.0889
46.0320	1231.6195
46.0340	1270.5795
46.0360	1107.9386
46.0380	995.2642
46.0400	981.7109
46.0420	934.5938
46.0440	1039.4625
46.0460	1087.4812
46.0480	1122.8685
46.0500	1172.2433
46.0520	1082.3873
46.0540	1019.4799
46.0560	849.0333
46.0580	721.2014
46.0600	958.3965
46.0620	929.6861
46.0640	1048.4384
46.0660	1055.9758
46.0680	996.5789
46.0700	898.1186
46.0720	832.4579
46.0740	847.5532
46.0760	737.7355
46.0780	786.6762
46.0800	889.2461
46.0820	961.1086
46.0840	993.0272
46.0860	905.5320
46.0880	893.2317
46.0900	761.6415
46.0920	727.5066
46.0940	841.1655
46.0960	882.8583
46.0980	850.0380
46.1000	872.8772
46.1020	821.0384
46.1040	773.1231
46.1060	697.3161
46.1080	688.3607
46.1100	759.0534
46.1120	724.8977
46.1140	761.7862
46.1160	827.1369
46.1180	876.6562
46.1200	765.6477
46.1220	766.4872
46.1240	731.5543
46.1260	659.4230
46.1280	676.9412
46.1300	671.9507
46.1320	761.5796
46.1340	762.8942
46.1360	717.4846
46.1380	770.3488
46.1400	631.8206
46.1420	615.0388
46.1440	717.5258
46.1460	640.4042
46.1480	708.5292
46.1500	661.9080
46.1520	689.6341
46.1540	616.4155
46.1560	568.4176
46.1580	593.6590
46.1600	636.5838
46.1620	613.9512
46.1640	640.2594
46.1660	600.0882
46.1680	686.9635
46.1700	616.5600
46.1720	610.0689
46.1740	567.1648
46.1760	560.8183
46.1780	539.3144
46.1800	544.3875
46.1820	587.3950
46.1840	635.2070
46.1860	608.9610
46.1880	579.6304
46.1900	522.9251
46.1920	550.8993
46.1940	483.7378
46.1960	564.4939
46.1980	559.6481
46.2000	510.1289
46.2020	524.2398
46.2040	540.5879
46.2060	544.4909
46.2080	515.4498
46.2100	498.8125
46.2120	480.1036
46.2140	501.3387
46.2160	495.1368
46.2180	562.2569
46.2200	508.8761
46.2220	508.8966
46.2240	483.9652
46.2260	441.9624
46.2280	440.9782
46.2300	526.7248
46.2320	495.0749
46.2340	558.3539
46.2360	467.3071
46.2380	481.2323
46.2400	477.5774
46.2420	429.3728
46.2440	372.5847
46.2460	458.4964
46.2480	466.0751
46.2500	493.9253
46.2520	467.2659
46.2540	434.4871
46.2560	464.9875
46.2580	476.1799
46.2600	438.1627
46.2620	364.0013
46.2640	421.7320
46.2660	438.0594
46.2680	476.4073
46.2700	395.3620
46.2720	394.0678
46.2740	476.2006
46.2760	378.9313
46.2780	391.5830
46.2800	378.9519
46.2820	372.6673
46.2840	407.8071
46.2860	429.6413
46.2880	404.0486
46.2900	367.5322
46.2920	353.7725
46.2940	366.3209
46.2960	367.5944
46.2980	356.0921
46.3000	408.0137
46.3020	426.9292
46.3040	419.4125
46.3060	410.4778
46.3080	348.5961
46.3100	390.3303
46.3120	362.5624
46.3140	323.2099
46.3160	328.5723
46.3180	337.1766
46.3200	404.2140
46.3220	324.5455
46.3240	349.9109
46.3260	315.8175
46.3280	348.6374
46.3300	314.5440
46.3320	317.0288
46.3340	356.1539
46.3360	314.5026
46.3380	348.5961
46.3400	337.3418
46.3420	362.4594
46.3440	314.5645
46.3460	325.8394
46.3480	349.7869
46.3500	336.1098
46.3520	358.6801
46.3540	320.8699
46.3560	339.7647
46.3580	317.0081
46.3600	300.6807
46.3620	285.4823
46.3640	318.2196
46.3660	306.9858
46.3680	288.0292
46.3700	323.3132
46.3720	296.7779
46.3740	362.5213
46.3760	366.3416
46.3780	277.8415
46.3800	289.2198
46.3820	308.2593
46.3840	285.4615
46.3860	305.6712
46.3880	286.6524
46.3900	346.0698
46.3920	288.0911
46.3940	289.2612
46.3960	258.8848
46.3980	296.8191
46.4000	294.2310
46.4020	319.6583
46.4040	363.6500
46.4060	345.0030
46.4080	256.5031
46.4100	265.0452
46.4120	252.7242
46.4140	252.6208
46.4160	270.3043
46.4180	240.0105
46.4200	290.4932
46.4220	337.2177
46.4240	274.0833
46.4260	260.1995
46.4280	277.8210
46.4300	290.5966
46.4320	295.5457
46.4340	247.5477
46.4360	251.3888
46.4380	258.9879
46.4400	255.1470
46.4420	277.8210
46.4440	279.0323
46.4460	272.9338
46.4480	265.2726
46.4500	237.5050
46.4520	255.1470
46.4540	241.2632
46.4560	266.4839
46.4580	264.0403
46.4600	260.0754
46.4620	266.5460
46.4640	274.1866
46.4660	236.1075
46.4680	269.0723
46.4700	305.7538
46.4720	295.4838
46.4740	277.9448
46.4760	245.0629
46.4780	179.3815
46.4800	270.2424
46.4820	199.5912
46.4840	233.6846
46.4860	252.6001
46.4880	241.2218
46.4900	261.4522
46.4920	274.0421
46.4940	257.7766
46.4960	234.9167
46.4980	234.9581
46.5000	218.4655
46.5020	223.6624
46.5040	268.9068
46.5060	277.9036
46.5080	275.4186
46.5100	236.1901
46.5120	232.3493
46.5140	228.7148
46.5160	256.3379
46.5180	261.4936
46.5200	227.2969
46.5220	231.2617
46.5240	242.5367
46.5260	213.4335
46.5280	214.8103
46.5300	209.5512
46.5320	213.4750
46.5340	221.0329
46.5360	256.3791
46.5380	217.2539
46.5400	257.6733
46.5420	267.7574
46.5440	224.8740
46.5460	262.7671
46.5480	212.2015
46.5500	227.3380
46.5520	203.3701
46.5540	229.8850
46.5560	228.6529
46.5580	213.3097
46.5600	237.6083
46.5620	238.7163
46.5640	238.6752
46.5660	213.5161
46.5680	255.1056
46.5700	226.0853
46.5720	252.6827
46.5740	219.7182
46.5760	223.6005
46.5780	216.0012
46.5800	185.7278
46.5820	185.6452
46.5840	214.7070
46.5860	207.1905
46.5880	212.2015
46.5900	222.2237
46.5920	202.1586
46.5940	223.6005
46.5960	233.6227
46.5980	204.5814
46.6000	229.9057
46.6020	221.0122
46.6040	248.8212
46.6060	253.9976
46.6080	229.8231
46.6100	243.7480
46.6120	210.9899
46.6140	176.8553
46.6160	213.4131
46.6180	202.0759
46.6200	243.8102
46.6220	202.1586
46.6240	258.8848
46.6260	183.1812
46.6280	175.6025
46.6300	210.8869
46.6320	184.4546
46.6340	205.7930
46.6360	238.7782
46.6380	170.5706
46.6400	198.2144
46.6420	202.1381
46.6440	215.9597
46.6460	246.3364
46.6480	176.9172
46.6500	159.0478
46.6520	185.7074
46.6540	186.9601
46.6560	162.9508
46.6580	207.1284
46.6600	175.5611
46.6620	200.8232
46.6640	229.8024
46.6660	221.0743
46.6680	181.9696
46.6700	238.7163
46.6720	184.3718
46.6740	214.6658
46.6760	242.5986
46.6780	132.6363
46.6800	179.3815
46.6820	169.1941
46.6840	155.4548
46.6860	176.7520
46.6880	189.4863
46.6900	178.0666
46.6920	189.5482
46.6940	191.9092
46.6960	208.4225
46.6980	156.7075
46.7000	121.1961
46.7020	155.4133
46.7040	204.5196
46.7060	214.7691
46.7080	175.6025
46.7100	178.1492
46.7120	197.0235
46.7140	188.1303
46.7160	188.2748
46.7180	183.1605
46.7200	205.8344
46.7220	188.2336
46.7240	190.7803
46.7260	179.2782
46.7280	181.9489
46.7300	181.7423
46.7320	228.6941
46.7340	195.7915
46.7360	185.7074
46.7380	208.2985
46.7400	193.3479
46.7420	199.5912
46.7440	156.5630
46.7460	166.7712
46.7480	213.4957
46.7500	197.0443
46.7520	199.4879
46.7540	214.7484
46.7560	154.1606
46.7580	198.2144
46.7600	192.0744
46.7620	204.6643
46.7640	186.8980
46.7660	218.4860
46.7680	175.6025
46.7700	144.0353
46.7720	165.3737
46.7740	176.8760
46.7760	169.2352
46.7780	142.7204
46.7800	207.1905
46.7820	176.8139
46.7840	160.3832
46.7860	171.8441
46.7880	152.7426
46.7900	160.4865
46.7920	175.5611
46.7940	183.2016
46.7960	171.7614
46.7980	138.8796
46.8000	161.7188
46.8020	188.1510
46.8040	188.2129
46.8060	150.3198
46.8080	221.0743
46.8100	192.0333
46.8120	159.1097
46.8140	152.8871
46.8160	164.1002
46.8180	141.5917
46.8200	183.0364
46.8220	180.6754
46.8240	169.2767
46.8260	171.8236
46.8280	154.0161
46.8300	145.2673
46.8320	180.5724
46.8340	162.9920
46.8360	127.5632
46.8380	198.2970
46.8400	176.8553
46.8420	146.4375
46.8440	198.3796
46.8460	154.1194
46.8480	185.6248
46.8500	165.5182
46.8520	146.5201
46.8540	193.1827
46.8560	189.5689
46.8580	151.5725
46.8600	164.1417
46.8620	178.1080
46.8640	187.0013
46.8660	170.4468
46.8680	181.9077
46.8700	152.8871
46.8720	179.3401
46.8740	208.3399
46.8760	176.8760
46.8780	212.2222
46.8800	154.0780
46.8820	149.0670
46.8840	161.6981
46.8860	172.9937
46.8880	157.9396
46.8900	148.9844
46.8920	154.1813
46.8940	138.9000
46.8960	183.0571
46.8980	158.0017
46.9000	126.2897
46.9020	166.7298
46.9040	152.7634
46.9060	183.2431
46.9080	135.1418
46.9100	151.5311
46.9120	162.9508
46.9140	143.9524
46.9160	160.4865
46.9180	169.2767
46.9200	130.0275
46.9220	164.2450
46.9240	113.7001
46.9260	136.4360
46.9280	169.1526
46.9300	181.9696
46.9320	159.1511
46.9340	179.2782
46.9360	170.5501
46.9380	154.1401
46.9400	145.2673
46.9420	150.2783
46.9440	128.9192
46.9460	141.3436
46.9480	175.6230
46.9500	172.9937
46.9520	170.5294
46.9540	183.2016
46.9560	131.2802
46.9580	147.8554
46.9600	149.0670
46.9620	132.5744
46.9640	176.7931
46.9660	183.1605
46.9680	145.3707
46.9700	117.3964
46.9720	130.1308
46.9740	140.1735
46.9760	136.4360
46.9780	165.4356
46.9800	160.4453
46.9820	135.1211
46.9840	162.9920
46.9860	132.6363
46.9880	162.8475
46.9900	170.5706
46.9920	152.8460
46.9940	116.2056
46.9960	152.8252
46.9980	130.0687
47.0000	142.7823
47.0020	144.0146
47.0040	128.8159
47.0060	143.9524
47.0080	140.2149
47.0100	160.4658
47.0120	160.3627
47.0140	135.2658
47.0160	133.7650
47.0180	150.2990
47.0200	171.8648
47.0220	122.4900
47.0240	132.6570
47.0260	152.7634
47.0280	141.5091
47.0300	183.2016
47.0320	107.2916
47.0340	137.6887
47.0360	135.1418
47.0380	165.4563
47.0400	121.2580
47.0420	146.5201
47.0440	140.2149
47.0460	155.3307
47.0480	195.8327
47.0500	171.8029
47.0520	126.2278
47.0540	142.7618
47.0560	157.9191
47.0580	123.8049
47.0600	116.2056
47.0620	145.2259
47.0640	165.4563
47.0660	145.2466
47.0680	143.9939
47.0700	136.4567
47.0720	146.4787
47.0740	121.3199
47.0760	155.3307
47.0780	138.9207
47.0800	102.3425
47.0820	165.4770
47.0840	118.7732
47.0860	99.7130
47.0880	133.8476
47.0900	200.8851
47.0920	161.6566
47.0940	119.9638
47.0960	141.5296
47.0980	118.7525
47.1000	159.1511
47.1020	140.1530
47.1040	130.1513
47.1060	138.9415
47.1080	92.1962
47.1100	135.0592
47.1120	183.1812
47.1140	137.7299
47.1160	120.0053
47.1180	176.7313
47.1200	146.5408
47.1220	147.8554
47.1240	145.2673
47.1260	152.7634
47.1280	152.8871
47.1300	152.8871
47.1320	146.4582
47.1340	154.1401
47.1360	104.7861
47.1380	165.4563
47.1400	109.8797
47.1420	117.5617
47.1440	138.8589
47.1460	123.8461
47.1480	94.7432
47.1500	132.5949
47.1520	140.1530
47.1540	133.9305
47.1560	156.5423
47.1580	130.1927
47.1600	90.9435
47.1620	125.0370
47.1640	117.4583
47.1660	162.9094
47.1680	136.4567
47.1700	137.6887
47.1720	125.0784
47.1740	128.7540
47.1760	133.9305
47.1780	128.8159
47.1800	133.9098
47.1820	137.6680
47.1840	147.8143
47.1860	133.8683
47.1880	127.5013
47.1900	136.4771
47.1920	155.3103
47.1940	152.9079
47.1960	151.5518
47.1980	126.3723
47.2000	109.7557
47.2020	133.9098
47.2040	156.6868
47.2060	111.1739
47.2080	150.2783
47.2100	149.0256
47.2120	127.5632
47.2140	133.9305
47.2160	136.4360
47.2180	118.6699
47.2200	135.1832
47.2220	145.3085
47.2240	116.1023
47.2260	133.9509
47.2280	84.6590
47.2300	97.2487
47.2320	130.0482
47.2340	147.7317
47.2360	145.2673
47.2380	156.7075
47.2400	137.6887
47.2420	154.0573
47.2440	140.2149
47.2460	149.0256
47.2480	132.6570
47.2500	101.0483
47.2520	109.9211
47.2540	109.8590
47.2560	116.2470
47.2580	116.2056
47.2600	123.7016
47.2620	102.4044
47.2640	102.2599
47.2660	130.1101
47.2680	133.9098
47.2700	117.4172
47.2720	130.1308
47.2740	90.9642
47.2760	89.6700
47.2780	117.4376
47.2800	109.9416
47.2820	112.3852
47.2840	148.9637
47.2860	132.6982
47.2880	99.7956
47.2900	141.4262
47.2920	149.0877
47.2940	116.2263
47.2960	103.5953
47.2980	135.0799
47.3000	113.6587
47.3020	168.0444
47.3040	113.6379
47.3060	133.9509
47.3080	94.7225
47.3100	137.6680
47.3120	121.2166
47.3140	122.5315
47.3160	103.6160
47.3180	94.7639
47.3200	78.2710
47.3220	106.1008
47.3240	136.3738
47.3260	132.6570
47.3280	99.8368
47.3300	102.3011
47.3320	108.5855
47.3340	112.4059
47.3360	75.8070
47.3380	98.5636
47.3400	104.7654
47.3420	111.2151
47.3440	88.4380
47.3460	85.8704
47.3480	98.4807
47.3500	120.0464
47.3520	118.7111
47.3540	117.4583
47.3560	133.8683
47.3580	106.1215
47.3600	114.9528
47.3620	104.8273
47.3640	119.9638
47.3660	118.7937
47.3680	103.5538
47.3700	78.3332
47.3720	112.3647
47.3740	133.9098
47.3760	84.6383
47.3780	118.7111
47.3800	123.7635
47.3820	84.6590
47.3840	101.0691
47.3860	111.1532
47.3880	83.3856
47.3900	117.4172
47.3920	132.6156
47.3940	108.5855
47.3960	113.7620
47.3980	141.4469
47.4000	106.0800
47.4020	97.2694
47.4040	107.3742
47.4060	96.0578
47.4080	124.9958
47.4100	85.9118
47.4120	75.7862
47.4140	89.6908
47.4160	101.0069
47.4180	99.7956
47.4200	92.1962
47.4220	92.2170
47.4240	92.1755
47.4260	98.5636
47.4280	107.3123
47.4300	111.1946
47.4320	101.0898
47.4340	116.1642
47.4360	96.0166
47.4380	102.2392
47.4400	107.3949
47.4420	112.4473
47.4440	98.4807
47.4460	116.2470
47.4480	85.8292
47.4500	112.4266
47.4520	104.8687
47.4540	99.7749
47.4560	142.7618
47.4580	63.1966
47.4600	112.3233
47.4620	102.3630
47.4640	106.0593
47.4660	94.7843
47.4680	103.5538
47.4700	83.3442
47.4720	97.2694
47.4740	73.2808
47.4760	143.9524
47.4780	128.8781
47.4800	101.0691
47.4820	104.7447
47.4840	65.7847
47.4860	83.3234
47.4880	96.0166
47.4900	73.2393
47.4920	93.4697
47.4940	56.8708
47.4960	99.7749
47.4980	94.7017
47.5000	85.8911
47.5020	108.6477
47.5040	80.8387
47.5060	85.9325
47.5080	80.7561
47.5100	101.0898
47.5120	95.9959
47.5140	99.7749
47.5160	96.0373
47.5180	94.7225
47.5200	112.3647
47.5220	108.6477
47.5240	95.9959
47.5260	104.8066
47.5280	64.4287
47.5300	85.8704
47.5320	112.4059
47.5340	99.8368
47.5360	103.5745
47.5380	64.4287
47.5400	80.7972
47.5420	89.7526
47.5440	114.8081
47.5460	127.6872
47.5480	42.9663
47.5500	88.3759
47.5520	80.8594
47.5540	83.3856
47.5560	63.0933
47.5580	69.5018
47.5600	84.6176
47.5620	80.8594
47.5640	100.9864
47.5660	90.9642
47.5680	102.3218
47.5700	68.1869
47.5720	101.0691
47.5740	121.2580
47.5760	119.9845
47.5780	78.3744
47.5800	94.7225
47.5820	72.0073
47.5840	70.6924
47.5860	104.8066
47.5880	88.4587
47.5900	97.1868
47.5920	89.7526
47.5940	90.9228
47.5960	102.3011
47.5980	89.7319
47.6000	98.4395
47.6020	73.3426
47.6040	78.2710
47.6060	116.2263
47.6080	87.1231
47.6100	91.0054
47.6120	93.3871
47.6140	104.8687
47.6160	77.0597
47.6180	68.2491
47.6200	70.6924
47.6220	78.3125
47.6240	87.1853
47.6260	88.3759
47.6280	101.0691
47.6300	83.4268
47.6320	47.8946
47.6340	89.7319
47.6360	87.1231
47.6380	72.0280
47.6400	65.6607
47.6420	80.8387
47.6440	98.5014
47.6460	70.7545
47.6480	84.6383
47.6500	73.2600
47.6520	102.3011
47.6540	95.9959
47.6560	77.1009
47.6580	55.5352
47.6600	61.8610
47.6620	69.5223
47.6640	63.1552
47.6660	55.5559
47.6680	73.1981
47.6700	113.7413
47.6720	84.6590
47.6740	42.9663
47.6760	99.6923
47.6780	89.7319
47.6800	68.2283
47.6820	59.3348
47.6840	73.2393
47.6860	78.3125
47.6880	66.9756
47.6900	45.5132
47.6920	51.7357
47.6940	87.1853
47.6960	95.9752
47.6980	77.0597
47.7000	90.9228
47.7020	77.0804
47.7040	68.1457
47.7060	42.9870
47.7080	92.1755
47.7100	82.1328
47.7120	78.3125
47.7140	77.0183
47.7160	80.8594
47.7180	72.0073
47.7200	41.7340
47.7220	58.0614
47.7240	69.4604
47.7260	97.2487
47.7280	79.5652
47.7300	90.9849
47.7320	61.8610
47.7340	83.3234
47.7360	77.0804
47.7380	87.1438
47.7400	88.4173
47.7420	82.1121
47.7440	97.2901
47.7460	77.0183
47.7480	88.4380
47.7500	98.4807
47.7520	78.3539
47.7540	83.3856
47.7560	66.9342
47.7580	94.6606
47.7600	84.7209
47.7620	79.5033
47.7640	83.4063
47.7660	98.4807
47.7680	101.1102
47.7700	54.3238
47.7720	59.3348
47.7740	64.3668
47.7760	68.2902
47.7780	87.1645
47.7800	69.4604
47.7820	92.1136
47.7840	90.9642
47.7860	87.1853
47.7880	51.8388
47.7900	53.0089
47.7920	82.0502
47.7940	74.5954
47.7960	74.5128
47.7980	76.9771
47.8000	79.6271
47.8020	48.0187
47.8040	56.8500
47.8060	66.9134
47.8080	89.6700
47.8100	61.9025
47.8120	78.2710
47.8140	74.5542
47.8160	77.0597
47.8180	72.0073
47.8200	69.4604
47.8220	97.2280
47.8240	78.3539
47.8260	92.2170
47.8280	82.0914
47.8300	60.6497
47.8320	78.3125
47.8340	61.8610
47.8360	59.3763
47.8380	78.3125
47.8400	87.1231
47.8420	89.6908
47.8440	68.2283
47.8460	53.0711
47.8480	46.6833
47.8500	73.2808
47.8520	89.6700
47.8540	49.2921
47.8560	65.6814
47.8580	55.5559
47.8600	70.7338
47.8620	84.6383
47.8640	59.3555
47.8660	73.2600
47.8680	51.7976
47.8700	56.8708
47.8720	56.8086
47.8740	69.4397
47.8760	65.7433
47.8780	68.1662
47.8800	66.9549
47.8820	61.8610
47.8840	87.1438
47.8860	78.3744
47.8880	68.1869
47.8900	88.3759
47.8920	104.8273
47.8940	94.7843
47.8960	66.9549
47.8980	60.6083
47.9000	54.3031
47.9020	92.2170
47.9040	77.0390
47.9060	53.0918
47.9080	56.8086
47.9100	68.2283
47.9120	60.6290
47.9140	35.3669
47.9160	70.7338
47.9180	45.4718
47.9200	70.7338
47.9220	45.4510
47.9240	74.5542
47.9260	65.6195
47.9280	44.2602
47.9300	65.6814
47.9320	77.0390
47.9340	80.7972
47.9360	73.3426
47.9380	39.1252
47.9400	51.7976
47.9420	55.5559
47.9440	60.6290
47.9460	88.3759
47.9480	84.6795
47.9500	45.4510
47.9520	39.2078
47.9540	35.3255
47.9560	78.2917
47.9580	68.2076
47.9600	65.7021
47.9620	69.4811
47.9640	65.6607
47.9660	54.3238
47.9680	50.5656
47.9700	63.1138
47.9720	39.1873
47.9740	55.5559
47.9760	68.2076
47.9780	79.5859
47.9800	46.7038
47.9820	53.0504
47.9840	69.4604
47.9860	58.1647
47.9880	53.0089
47.9900	60.6290
47.9920	39.1666
47.9940	72.0073
47.9960	47.9565
47.9980	59.3970
48.0000	26.5563
